" File: Users\LabUser\Documents\MonochromatorCal
"  SCOPE->  Wave:693.48nm  Pix:1050  Val:852.000  Time: 10ms  Avg:1  Sm:1  Sg:0  Tc:off  SNAP  Xt:3  Ch:1  Xtrig  
 191.00  8.8894E+002
 191.50  8.9401E+002
 192.00  8.8003E+002
 192.50  8.4930E+002
 193.00  8.3319E+002
 193.50  8.2941E+002
 194.00  8.3774E+002
 194.50  8.4761E+002
 195.00  8.5635E+002
 195.50  8.5103E+002
 196.00  8.3239E+002
 196.50  8.1526E+002
 197.00  8.0603E+002
 197.50  8.0647E+002
 198.00  8.2156E+002
 198.50  8.3200E+002
 199.00  8.3154E+002
 199.50  8.2500E+002
 200.00  8.0630E+002
 200.50  8.1283E+002
 201.00  8.2688E+002
 201.50  8.0260E+002
 202.00  7.9908E+002
 202.50  8.0127E+002
 203.00  8.0332E+002
 203.50  8.0965E+002
 204.00  8.1739E+002
 204.50  8.2514E+002
 205.00  8.3330E+002
 205.50  8.3904E+002
 206.00  8.4176E+002
 206.50  8.4489E+002
 207.00  8.4693E+002
 207.50  8.3587E+002
 208.00  8.3103E+002
 208.50  8.3827E+002
 209.00  8.3992E+002
 209.50  8.3432E+002
 210.00  8.2980E+002
 210.50  8.2268E+002
 211.00  8.0859E+002
 211.50  7.9528E+002
 212.00  7.9230E+002
 212.50  7.9858E+002
 213.00  8.0639E+002
 213.50  8.1231E+002
 214.00  8.1894E+002
 214.50  8.2481E+002
 215.00  8.3003E+002
 215.50  8.4037E+002
 216.00  8.5877E+002
 216.50  8.7562E+002
 217.00  8.8614E+002
 217.50  8.9028E+002
 218.00  8.8918E+002
 218.50  8.8353E+002
 219.00  8.7370E+002
 219.50  8.6368E+002
 220.00  8.5678E+002
 220.50  8.5384E+002
 221.00  8.5367E+002
 221.50  8.5508E+002
 222.00  8.5894E+002
 222.50  8.6067E+002
 223.00  8.5586E+002
 223.50  8.4530E+002
 224.00  8.3738E+002
 224.50  8.2945E+002
 225.00  8.2758E+002
 225.50  8.3423E+002
 226.00  8.4491E+002
 226.50  8.5638E+002
 227.00  8.6936E+002
 227.50  8.7700E+002
 228.00  8.7670E+002
 228.50  8.7381E+002
 229.00  8.6881E+002
 229.50  8.5782E+002
 230.00  8.4462E+002
 230.50  8.3454E+002
 231.00  8.2184E+002
 231.50  8.0460E+002
 232.00  7.9099E+002
 232.50  7.8625E+002
 233.00  7.8702E+002
 233.50  7.9213E+002
 234.00  8.0244E+002
 234.50  8.0900E+002
 235.00  8.1205E+002
 235.50  8.1437E+002
 236.00  8.2061E+002
 236.50  8.2547E+002
 237.00  8.2888E+002
 237.50  8.3440E+002
 238.00  8.4179E+002
 238.50  8.4802E+002
 239.00  8.5243E+002
 239.50  8.5514E+002
 240.00  8.5388E+002
 240.50  8.5011E+002
 241.00  8.4685E+002
 241.50  8.4260E+002
 242.00  8.3944E+002
 242.50  8.4003E+002
 243.00  8.4288E+002
 243.50  8.4227E+002
 244.00  8.3618E+002
 244.50  8.2678E+002
 245.00  8.2055E+002
 245.50  8.1707E+002
 246.00  8.1382E+002
 246.50  8.1517E+002
 247.00  8.2298E+002
 247.50  8.3436E+002
 248.00  8.4338E+002
 248.50  8.4585E+002
 249.00  8.4385E+002
 249.50  8.4303E+002
 250.00  8.4588E+002
 250.50  8.4951E+002
 251.00  8.5385E+002
 251.50  8.6382E+002
 252.00  8.7175E+002
 252.50  8.6609E+002
 253.00  8.5123E+002
 253.50  8.4011E+002
 254.00  8.3262E+002
 254.50  8.2385E+002
 255.00  8.1984E+002
 255.50  8.2462E+002
 256.00  8.3135E+002
 256.50  8.3433E+002
 257.00  8.3062E+002
 257.50  8.2344E+002
 258.00  8.1391E+002
 258.50  8.0111E+002
 259.00  7.9016E+002
 259.50  7.9010E+002
 260.00  8.0179E+002
 260.50  8.1667E+002
 261.00  8.2958E+002
 261.50  8.3871E+002
 262.00  8.4003E+002
 262.50  8.3632E+002
 263.00  8.2999E+002
 263.50  8.2778E+002
 264.00  8.3218E+002
 264.50  8.3277E+002
 265.00  8.3080E+002
 265.50  8.2835E+002
 266.00  8.2437E+002
 266.50  8.1813E+002
 267.00  8.1423E+002
 267.50  8.1284E+002
 268.00  8.1273E+002
 268.50  8.1157E+002
 269.00  8.0851E+002
 269.50  8.0861E+002
 270.00  8.1324E+002
 270.50  8.1865E+002
 271.00  8.2361E+002
 271.50  8.2776E+002
 272.00  8.2907E+002
 272.50  8.2765E+002
 273.00  8.2655E+002
 273.50  8.3022E+002
 274.00  8.3740E+002
 274.50  8.4763E+002
 275.00  8.5780E+002
 275.50  8.6361E+002
 276.00  8.6013E+002
 276.50  8.5494E+002
 277.00  8.5555E+002
 277.50  8.5398E+002
 278.00  8.5139E+002
 278.50  8.5199E+002
 279.00  8.5565E+002
 279.50  8.5720E+002
 280.00  8.5102E+002
 280.50  8.4330E+002
 281.00  8.3991E+002
 281.50  8.3570E+002
 282.00  8.3174E+002
 282.50  8.3469E+002
 283.00  8.4201E+002
 283.50  8.4426E+002
 284.00  8.3807E+002
 284.50  8.2820E+002
 285.00  8.2042E+002
 285.50  8.1672E+002
 286.00  8.1673E+002
 286.50  8.2429E+002
 287.00  8.3626E+002
 287.50  8.3828E+002
 288.00  8.3107E+002
 288.50  8.2588E+002
 289.00  8.2079E+002
 289.50  8.1503E+002
 290.00  8.1580E+002
 290.50  8.2333E+002
 291.00  8.2360E+002
 291.50  8.1551E+002
 292.00  8.0508E+002
 292.50  7.9744E+002
 293.00  7.9380E+002
 293.50  7.9335E+002
 294.00  7.9472E+002
 294.50  7.9984E+002
 295.00  8.0475E+002
 295.50  8.0633E+002
 296.00  8.0786E+002
 296.50  8.1226E+002
 297.00  8.1524E+002
 297.50  8.1498E+002
 298.00  8.1634E+002
 298.50  8.1976E+002
 299.00  8.2377E+002
 299.50  8.3053E+002
 300.00  8.3803E+002
 300.50  8.4067E+002
 301.00  8.3789E+002
 301.50  8.3689E+002
 302.00  8.4156E+002
 302.50  8.4734E+002
 303.00  8.4942E+002
 303.50  8.5451E+002
 304.00  8.6252E+002
 304.50  8.6144E+002
 305.00  8.5659E+002
 305.50  8.5905E+002
 306.00  8.6005E+002
 306.50  8.5091E+002
 307.00  8.4311E+002
 307.50  8.3626E+002
 308.00  8.3326E+002
 308.50  8.3335E+002
 309.00  8.3937E+002
 309.50  8.4652E+002
 310.00  8.5244E+002
 310.50  8.5623E+002
 311.00  8.5505E+002
 311.50  8.5223E+002
 312.00  8.5196E+002
 312.50  8.4925E+002
 313.00  8.4082E+002
 313.50  8.3476E+002
 314.00  8.3101E+002
 314.50  8.2231E+002
 315.00  8.1448E+002
 315.50  8.1470E+002
 316.00  8.1570E+002
 316.50  8.1156E+002
 317.00  8.1010E+002
 317.50  8.1805E+002
 318.00  8.2932E+002
 318.50  8.3816E+002
 319.00  8.4647E+002
 319.50  8.5079E+002
 320.00  8.4531E+002
 320.50  8.3267E+002
 321.00  8.2013E+002
 321.50  8.1325E+002
 322.00  8.1460E+002
 322.50  8.2271E+002
 323.00  8.3144E+002
 323.50  8.3813E+002
 324.00  8.4484E+002
 324.50  8.5002E+002
 325.00  8.4990E+002
 325.50  8.4737E+002
 326.00  8.4975E+002
 326.50  8.5543E+002
 327.00  8.5617E+002
 327.50  8.5440E+002
 328.00  8.4931E+002
 328.50  8.4536E+002
 329.00  8.4031E+002
 329.50  8.3576E+002
 330.00  8.3468E+002
 330.50  8.3690E+002
 331.00  8.3530E+002
 331.50  8.2890E+002
 332.00  8.2498E+002
 332.50  8.1888E+002
 333.00  8.1696E+002
 333.50  8.2628E+002
 334.00  8.3629E+002
 334.50  8.4321E+002
 335.00  8.4799E+002
 335.50  8.4523E+002
 336.00  8.3598E+002
 336.50  8.2854E+002
 337.00  8.2211E+002
 337.50  8.1993E+002
 338.00  8.2592E+002
 338.50  8.3296E+002
 339.00  8.4131E+002
 339.50  8.5532E+002
 340.00  8.7093E+002
 340.50  8.8305E+002
 341.00  8.9095E+002
 341.50  8.9180E+002
 342.00  8.8305E+002
 342.50  8.6984E+002
 343.00  8.5981E+002
 343.50  8.5441E+002
 344.00  8.5176E+002
 344.50  8.5295E+002
 345.00  8.5738E+002
 345.50  8.6326E+002
 346.00  8.7056E+002
 346.50  8.7539E+002
 347.00  8.7576E+002
 347.50  8.7189E+002
 348.00  8.6274E+002
 348.50  8.5040E+002
 349.00  8.4099E+002
 349.50  8.3483E+002
 350.00  8.3530E+002
 350.50  8.4116E+002
 351.00  8.3996E+002
 351.50  8.3427E+002
 352.00  8.3132E+002
 352.50  8.2694E+002
 353.00  8.2280E+002
 353.50  8.2415E+002
 354.00  8.2924E+002
 354.50  8.3307E+002
 355.00  8.3727E+002
 355.50  8.4031E+002
 356.00  8.4697E+002
 356.50  8.5453E+002
 357.00  8.6045E+002
 357.50  8.6523E+002
 358.00  8.6431E+002
 358.50  8.5792E+002
 359.00  8.5323E+002
 359.50  8.5405E+002
 360.00  8.5914E+002
 360.50  8.6668E+002
 361.00  8.6867E+002
 361.50  8.6860E+002
 362.00  8.6210E+002
 362.50  8.4526E+002
 363.00  8.3323E+002
 363.50  8.2943E+002
 364.00  8.2627E+002
 364.50  8.3192E+002
 365.00  8.4012E+002
 365.50  8.4114E+002
 366.00  8.3478E+002
 366.50  8.2865E+002
 367.00  8.2321E+002
 367.50  8.2001E+002
 368.00  8.1729E+002
 368.50  8.2712E+002
 369.00  8.4171E+002
 369.50  8.4396E+002
 370.00  8.3831E+002
 370.50  8.3594E+002
 371.00  8.3408E+002
 371.50  8.3068E+002
 372.00  8.3346E+002
 372.50  8.4288E+002
 373.00  8.5354E+002
 373.50  8.5890E+002
 374.00  8.5420E+002
 374.50  8.4508E+002
 375.00  8.3903E+002
 375.50  8.3004E+002
 376.00  8.2160E+002
 376.50  8.2155E+002
 377.00  8.3015E+002
 377.50  8.3851E+002
 378.00  8.4487E+002
 378.50  8.4853E+002
 379.00  8.4438E+002
 379.50  8.3266E+002
 380.00  8.2552E+002
 380.50  8.2175E+002
 381.00  8.1987E+002
 381.50  8.3119E+002
 382.00  8.4633E+002
 382.50  8.5085E+002
 383.00  8.5232E+002
 383.50  8.4942E+002
 384.00  8.3831E+002
 384.50  8.2515E+002
 385.00  8.1384E+002
 385.50  8.0110E+002
 386.00  7.9462E+002
 386.50  7.8699E+002
 387.00  7.7983E+002
 387.50  7.8067E+002
 388.00  7.8495E+002
 388.50  7.8741E+002
 389.00  7.9318E+002
 389.50  7.9783E+002
 390.00  7.9865E+002
 390.50  8.0333E+002
 391.00  8.0266E+002
 391.50  8.0334E+002
 392.00  8.0501E+002
 392.50  8.0856E+002
 393.00  8.1099E+002
 393.50  8.2157E+002
 394.00  8.3648E+002
 394.50  8.4580E+002
 395.00  8.4454E+002
 395.50  8.4454E+002
 396.00  8.4548E+002
 396.50  8.4152E+002
 397.00  8.4709E+002
 397.50  8.5773E+002
 398.00  8.6240E+002
 398.50  8.6160E+002
 399.00  8.6117E+002
 399.50  8.6063E+002
 400.00  8.6555E+002
 400.50  8.7063E+002
 401.00  8.7250E+002
 401.50  8.7110E+002
 402.00  8.6587E+002
 402.50  8.5844E+002
 403.00  8.5300E+002
 403.50  8.4981E+002
 404.00  8.4813E+002
 404.50  8.5004E+002
 405.00  8.5448E+002
 405.50  8.5534E+002
 406.00  8.5133E+002
 406.50  8.4645E+002
 407.00  8.3880E+002
 407.50  8.2693E+002
 408.00  8.2075E+002
 408.50  8.2656E+002
 409.00  8.3701E+002
 409.50  8.4690E+002
 410.00  8.5354E+002
 410.50  8.5332E+002
 411.00  8.4439E+002
 411.50  8.3151E+002
 412.00  8.2302E+002
 412.50  8.2174E+002
 413.00  8.2473E+002
 413.50  8.3279E+002
 414.00  8.4367E+002
 414.50  8.4915E+002
 415.00  8.4784E+002
 415.50  8.4497E+002
 416.00  8.3795E+002
 416.50  8.2813E+002
 417.00  8.2101E+002
 417.50  8.1573E+002
 418.00  8.0880E+002
 418.50  8.0529E+002
 419.00  8.0555E+002
 419.50  8.0931E+002
 420.00  8.2117E+002
 420.50  8.3458E+002
 421.00  8.4292E+002
 421.50  8.4771E+002
 422.00  8.5011E+002
 422.50  8.4743E+002
 423.00  8.5057E+002
 423.50  8.6048E+002
 424.00  8.7071E+002
 424.50  8.8262E+002
 425.00  8.9757E+002
 425.50  9.0414E+002
 426.00  9.0696E+002
 426.50  9.0316E+002
 427.00  8.8883E+002
 427.50  8.6996E+002
 428.00  8.5059E+002
 428.50  8.3638E+002
 429.00  8.2990E+002
 429.50  8.2861E+002
 430.00  8.3450E+002
 430.50  8.4816E+002
 431.00  8.5443E+002
 431.50  8.5490E+002
 432.00  8.5192E+002
 432.50  8.4343E+002
 433.00  8.3454E+002
 433.50  8.2888E+002
 434.00  8.2685E+002
 434.50  8.3370E+002
 435.00  8.4350E+002
 435.50  8.4647E+002
 436.00  8.4608E+002
 436.50  8.4571E+002
 437.00  8.4232E+002
 437.50  8.4045E+002
 438.00  8.4236E+002
 438.50  8.4210E+002
 439.00  8.3848E+002
 439.50  8.3099E+002
 440.00  8.1773E+002
 440.50  8.0861E+002
 441.00  8.0825E+002
 441.50  8.1211E+002
 442.00  8.1679E+002
 442.50  8.2297E+002
 443.00  8.2838E+002
 443.50  8.3231E+002
 444.00  8.3066E+002
 444.50  8.2966E+002
 445.00  8.3112E+002
 445.50  8.2181E+002
 446.00  8.0694E+002
 446.50  7.9919E+002
 447.00  7.9884E+002
 447.50  7.9670E+002
 448.00  7.9800E+002
 448.50  7.9983E+002
 449.00  7.9281E+002
 449.50  7.8409E+002
 450.00  7.8105E+002
 450.50  7.8202E+002
 451.00  7.8540E+002
 451.50  7.9619E+002
 452.00  8.0860E+002
 452.50  8.1793E+002
 453.00  8.2737E+002
 453.50  8.3839E+002
 454.00  8.4662E+002
 454.50  8.5029E+002
 455.00  8.5494E+002
 455.50  8.6279E+002
 456.00  8.6645E+002
 456.50  8.6499E+002
 457.00  8.6180E+002
 457.50  8.5429E+002
 458.00  8.4286E+002
 458.50  8.4311E+002
 459.00  8.5815E+002
 459.50  8.7311E+002
 460.00  8.8559E+002
 460.50  8.9972E+002
 461.00  9.0375E+002
 461.50  8.9437E+002
 462.00  8.8404E+002
 462.50  8.7728E+002
 463.00  8.6667E+002
 463.50  8.5167E+002
 464.00  8.3847E+002
 464.50  8.2995E+002
 465.00  8.2347E+002
 465.50  8.2358E+002
 466.00  8.3016E+002
 466.50  8.3646E+002
 467.00  8.4012E+002
 467.50  8.4023E+002
 468.00  8.3939E+002
 468.50  8.3898E+002
 469.00  8.3951E+002
 469.50  8.4139E+002
 470.00  8.4274E+002
 470.50  8.4115E+002
 471.00  8.3709E+002
 471.50  8.3204E+002
 472.00  8.2600E+002
 472.50  8.1853E+002
 473.00  8.1137E+002
 473.50  8.0199E+002
 474.00  7.9440E+002
 474.50  7.9375E+002
 475.00  8.0289E+002
 475.50  8.1697E+002
 476.00  8.3359E+002
 476.50  8.4178E+002
 477.00  8.4294E+002
 477.50  8.4029E+002
 478.00  8.3121E+002
 478.50  8.1792E+002
 479.00  8.0589E+002
 479.50  7.9171E+002
 480.00  7.7873E+002
 480.50  7.7358E+002
 481.00  7.7341E+002
 481.50  7.7982E+002
 482.00  7.9392E+002
 482.50  8.0114E+002
 483.00  8.0311E+002
 483.50  8.0726E+002
 484.00  8.0712E+002
 484.50  8.0607E+002
 485.00  8.1617E+002
 485.50  8.2786E+002
 486.00  8.3837E+002
 486.50  8.4837E+002
 487.00  8.4950E+002
 487.50  8.5034E+002
 488.00  8.5674E+002
 488.50  8.6044E+002
 489.00  8.5775E+002
 489.50  8.5281E+002
 490.00  8.4802E+002
 490.50  8.4691E+002
 491.00  8.5009E+002
 491.50  8.5696E+002
 492.00  8.6409E+002
 492.50  8.6847E+002
 493.00  8.7244E+002
 493.50  8.7015E+002
 494.00  8.6060E+002
 494.50  8.4969E+002
 495.00  8.3102E+002
 495.50  8.1401E+002
 496.00  8.1542E+002
 496.50  8.2426E+002
 497.00  8.3023E+002
 497.50  8.3659E+002
 498.00  8.3719E+002
 498.50  8.3039E+002
 499.00  8.2051E+002
 499.50  8.1270E+002
 500.00  8.0821E+002
 500.50  8.1056E+002
 501.00  8.2009E+002
 501.50  8.2974E+002
 502.00  8.3974E+002
 502.50  8.4660E+002
 503.00  8.4879E+002
 503.50  8.5023E+002
 504.00  8.5040E+002
 504.50  8.4782E+002
 505.00  8.4591E+002
 505.50  8.3488E+002
 506.00  8.2051E+002
 506.50  8.1091E+002
 507.00  8.0149E+002
 507.50  7.9333E+002
 508.00  7.9520E+002
 508.50  8.0635E+002
 509.00  8.1535E+002
 509.50  8.2342E+002
 510.00  8.3479E+002
 510.50  8.4496E+002
 511.00  8.5117E+002
 511.50  8.5529E+002
 512.00  8.5496E+002
 512.50  8.5055E+002
 513.00  8.4823E+002
 513.50  8.5178E+002
 514.00  8.6122E+002
 514.50  8.7296E+002
 515.00  8.8057E+002
 515.50  8.8176E+002
 516.00  8.7413E+002
 516.50  8.6330E+002
 517.00  8.5898E+002
 517.50  8.5983E+002
 518.00  8.6248E+002
 518.50  8.6758E+002
 519.00  8.6867E+002
 519.50  8.6414E+002
 520.00  8.5617E+002
 520.50  8.5500E+002
 521.00  8.5716E+002
 521.50  8.5351E+002
 522.00  8.4678E+002
 522.50  8.4054E+002
 523.00  8.3388E+002
 523.50  8.3276E+002
 524.00  8.3599E+002
 524.50  8.3525E+002
 525.00  8.2998E+002
 525.50  8.2244E+002
 526.00  8.1365E+002
 526.50  8.1130E+002
 527.00  8.1900E+002
 527.50  8.3058E+002
 528.00  8.4381E+002
 528.50  8.5590E+002
 529.00  8.5958E+002
 529.50  8.5813E+002
 530.00  8.4669E+002
 530.50  8.3069E+002
 531.00  8.1678E+002
 531.50  8.0803E+002
 532.00  8.0939E+002
 532.50  8.2395E+002
 533.00  8.4248E+002
 533.50  8.5532E+002
 534.00  8.6311E+002
 534.50  8.6641E+002
 535.00  8.6329E+002
 535.50  8.5957E+002
 536.00  8.6073E+002
 536.50  8.6693E+002
 537.00  8.7023E+002
 537.50  8.7135E+002
 538.00  8.7359E+002
 538.50  8.6667E+002
 539.00  8.5238E+002
 539.50  8.3864E+002
 540.00  8.2750E+002
 540.50  8.2535E+002
 541.00  8.2660E+002
 541.50  8.2796E+002
 542.00  8.3000E+002
 542.50  8.2669E+002
 543.00  8.1830E+002
 543.50  8.2080E+002
 544.00  8.2584E+002
 544.50  8.3307E+002
 545.00  8.5039E+002
 545.50  8.6574E+002
 546.00  8.6729E+002
 546.50  8.6763E+002
 547.00  8.6484E+002
 547.50  8.5366E+002
 548.00  8.4828E+002
 548.50  8.4941E+002
 549.00  8.4261E+002
 549.50  8.3119E+002
 550.00  8.2771E+002
 550.50  8.3161E+002
 551.00  8.3549E+002
 551.50  8.4624E+002
 552.00  8.5705E+002
 552.50  8.5603E+002
 553.00  8.4711E+002
 553.50  8.3654E+002
 554.00  8.2527E+002
 554.50  8.1585E+002
 555.00  8.1460E+002
 555.50  8.2019E+002
 556.00  8.1943E+002
 556.50  8.1693E+002
 557.00  8.1013E+002
 557.50  7.9833E+002
 558.00  7.9023E+002
 558.50  7.9151E+002
 559.00  8.0158E+002
 559.50  8.1727E+002
 560.00  8.3378E+002
 560.50  8.5237E+002
 561.00  8.6296E+002
 561.50  8.5957E+002
 562.00  8.5540E+002
 562.50  8.4510E+002
 563.00  8.3228E+002
 563.50  8.2881E+002
 564.00  8.2711E+002
 564.50  8.2304E+002
 565.00  8.2387E+002
 565.50  8.2645E+002
 566.00  8.2763E+002
 566.50  8.3232E+002
 567.00  8.4027E+002
 567.50  8.4836E+002
 568.00  8.4668E+002
 568.50  8.4152E+002
 569.00  8.4795E+002
 569.50  8.5548E+002
 570.00  8.5980E+002
 570.50  8.7293E+002
 571.00  8.8180E+002
 571.50  8.7872E+002
 572.00  8.7757E+002
 572.50  8.7348E+002
 573.00  8.6057E+002
 573.50  8.5146E+002
 574.00  8.4657E+002
 574.50  8.4412E+002
 575.00  8.4854E+002
 575.50  8.5541E+002
 576.00  8.5613E+002
 576.50  8.4872E+002
 577.00  8.3987E+002
 577.50  8.3083E+002
 578.00  8.2505E+002
 578.50  8.2819E+002
 579.00  8.3284E+002
 579.50  8.3408E+002
 580.00  8.3145E+002
 580.50  8.2670E+002
 581.00  8.2388E+002
 581.50  8.2223E+002
 582.00  8.2455E+002
 582.50  8.3123E+002
 583.00  8.3224E+002
 583.50  8.2685E+002
 584.00  8.2136E+002
 584.50  8.1298E+002
 585.00  8.0490E+002
 585.50  8.0366E+002
 586.00  8.0835E+002
 586.50  8.1607E+002
 587.00  8.2276E+002
 587.50  8.2625E+002
 588.00  8.2941E+002
 588.50  8.3019E+002
 589.00  8.2263E+002
 589.50  8.1733E+002
 590.00  8.1743E+002
 590.50  8.1897E+002
 591.00  8.2202E+002
 591.50  8.2865E+002
 592.00  8.3454E+002
 592.50  8.3815E+002
 593.00  8.3706E+002
 593.50  8.3486E+002
 594.00  8.3837E+002
 594.50  8.4679E+002
 595.00  8.5484E+002
 595.50  8.6272E+002
 596.00  8.6365E+002
 596.50  8.5930E+002
 597.00  8.5298E+002
 597.50  8.4687E+002
 598.00  8.4670E+002
 598.50  8.4759E+002
 599.00  8.4329E+002
 599.50  8.3836E+002
 600.00  8.3549E+002
 600.50  8.3398E+002
 601.00  8.3520E+002
 601.50  8.3718E+002
 602.00  8.3459E+002
 602.50  8.2987E+002
 603.00  8.3301E+002
 603.50  8.3588E+002
 604.00  8.4168E+002
 604.50  8.5165E+002
 605.00  8.5921E+002
 605.50  8.5872E+002
 606.00  8.5768E+002
 606.50  8.5687E+002
 607.00  8.5231E+002
 607.50  8.5177E+002
 608.00  8.5157E+002
 608.50  8.5089E+002
 609.00  8.5094E+002
 609.50  8.4850E+002
 610.00  8.4756E+002
 610.50  8.4695E+002
 611.00  8.4440E+002
 611.50  8.4640E+002
 612.00  8.4441E+002
 612.50  8.4172E+002
 613.00  8.3230E+002
 613.50  8.1921E+002
 614.00  8.1360E+002
 614.50  8.1830E+002
 615.00  8.2809E+002
 615.50  8.3957E+002
 616.00  8.4856E+002
 616.50  8.5282E+002
 617.00  8.4820E+002
 617.50  8.4906E+002
 618.00  8.5395E+002
 618.50  8.5483E+002
 619.00  8.5039E+002
 619.50  8.4620E+002
 620.00  8.4555E+002
 620.50  8.4681E+002
 621.00  8.5173E+002
 621.50  8.5967E+002
 622.00  8.6336E+002
 622.50  8.6146E+002
 623.00  8.6307E+002
 623.50  8.7004E+002
 624.00  8.7721E+002
 624.50  8.8403E+002
 625.00  8.8557E+002
 625.50  8.8131E+002
 626.00  8.7496E+002
 626.50  8.6936E+002
 627.00  8.6727E+002
 627.50  8.7057E+002
 628.00  8.7134E+002
 628.50  8.6765E+002
 629.00  8.6446E+002
 629.50  8.5947E+002
 630.00  8.5027E+002
 630.50  8.4352E+002
 631.00  8.3932E+002
 631.50  8.3549E+002
 632.00  8.3566E+002
 632.50  8.3655E+002
 633.00  8.3870E+002
 633.50  8.4000E+002
 634.00  8.4417E+002
 634.50  8.5074E+002
 635.00  8.5338E+002
 635.50  8.5180E+002
 636.00  8.5272E+002
 636.50  8.4740E+002
 637.00  8.3734E+002
 637.50  8.3900E+002
 638.00  8.3995E+002
 638.50  8.3466E+002
 639.00  8.3845E+002
 639.50  8.4414E+002
 640.00  8.4976E+002
 640.50  8.5552E+002
 641.00  8.5499E+002
 641.50  8.5503E+002
 642.00  8.5507E+002
 642.50  8.4728E+002
 643.00  8.4381E+002
 643.50  8.4234E+002
 644.00  8.3845E+002
 644.50  8.3820E+002
 645.00  8.3989E+002
 645.50  8.4411E+002
 646.00  8.5331E+002
 646.50  8.6471E+002
 647.00  8.7745E+002
 647.50  8.8602E+002
 648.00  8.9039E+002
 648.50  8.8655E+002
 649.00  8.7789E+002
 649.50  8.6977E+002
 650.00  8.6230E+002
 650.50  8.6489E+002
 651.00  8.7506E+002
 651.50  8.8758E+002
 652.00  8.9299E+002
 652.50  8.8727E+002
 653.00  8.7941E+002
 653.50  8.6900E+002
 654.00  8.6220E+002
 654.50  8.6546E+002
 655.00  8.6320E+002
 655.50  8.5627E+002
 656.00  8.5747E+002
 656.50  8.6143E+002
 657.00  8.6335E+002
 657.50  8.6443E+002
 658.00  8.6033E+002
 658.50  8.5866E+002
 659.00  8.6531E+002
 659.50  8.6999E+002
 660.00  8.7080E+002
 660.50  8.6726E+002
 661.00  8.5261E+002
 661.50  8.3775E+002
 662.00  8.3356E+002
 662.50  8.3125E+002
 663.00  8.2655E+002
 663.50  8.1934E+002
 664.00  8.2057E+002
 664.50  8.3087E+002
 665.00  8.4138E+002
 665.50  8.4450E+002
 666.00  8.4415E+002
 666.50  8.3290E+002
 667.00  8.1767E+002
 667.50  8.1405E+002
 668.00  8.1467E+002
 668.50  8.1821E+002
 669.00  8.2745E+002
 669.50  8.3766E+002
 670.00  8.4513E+002
 670.50  8.4939E+002
 671.00  8.5771E+002
 671.50  8.6028E+002
 672.00  8.6048E+002
 672.50  8.6660E+002
 673.00  8.6799E+002
 673.50  8.6248E+002
 674.00  8.5951E+002
 674.50  8.5658E+002
 675.00  8.5824E+002
 675.50  8.6426E+002
 676.00  8.7784E+002
 676.50  8.9062E+002
 677.00  8.9114E+002
 677.50  8.8263E+002
 678.00  8.7290E+002
 678.50  8.5948E+002
 679.00  8.4645E+002
 679.50  8.4465E+002
 680.00  8.5313E+002
 680.50  8.5912E+002
 681.00  8.6387E+002
 681.50  8.6256E+002
 682.00  8.4752E+002
 682.50  8.3681E+002
 683.00  8.3884E+002
 683.50  8.3872E+002
 684.00  8.3279E+002
 684.50  8.2638E+002
 685.00  8.0995E+002
 685.50  7.9959E+002
 686.00  8.0536E+002
 686.50  8.1370E+002
 687.00  8.2469E+002
 687.50  8.4024E+002
 688.00  8.4576E+002
 688.50  8.5339E+002
 689.00  8.5587E+002
 689.50  8.5170E+002
 690.00  8.5173E+002
 690.50  8.5145E+002
 691.00  8.4560E+002
 691.50  8.4571E+002
 692.00  8.4657E+002
 692.50  8.4420E+002
 693.00  8.4822E+002
 693.50  8.5198E+002
 694.00  8.5156E+002
 694.50  8.4969E+002
 695.00  8.4296E+002
 695.50  8.3502E+002
 696.00  8.2957E+002
 696.50  8.3320E+002
 697.00  8.4471E+002
 697.50  8.5184E+002
 698.00  8.5197E+002
 698.50  8.4228E+002
 699.00  8.2924E+002
 699.50  8.2580E+002
 700.00  8.3739E+002
 700.50  8.5738E+002
 701.00  8.7861E+002
 701.50  8.9306E+002
 702.00  9.0254E+002
 702.50  8.9944E+002
 703.00  8.8752E+002
 703.50  8.7861E+002
 704.00  8.6983E+002
 704.50  8.7261E+002
 705.00  8.7652E+002
 705.50  8.7481E+002
 706.00  8.7653E+002
 706.50  8.7434E+002
 707.00  8.7080E+002
 707.50  8.7194E+002
 708.00  8.7257E+002
 708.50  8.7404E+002
 709.00  8.7851E+002
 709.50  8.8122E+002
 710.00  8.8441E+002
 710.50  8.8743E+002
 711.00  8.8641E+002
 711.50  8.8744E+002
 712.00  8.8768E+002
 712.50  8.8232E+002
 713.00  8.7321E+002
 713.50  8.6487E+002
 714.00  8.6699E+002
 714.50  8.6733E+002
 715.00  8.6009E+002
 715.50  8.5167E+002
 716.00  8.4251E+002
 716.50  8.3816E+002
 717.00  8.3761E+002
 717.50  8.3567E+002
 718.00  8.3218E+002
 718.50  8.2187E+002
 719.00  8.1562E+002
 719.50  8.1931E+002
 720.00  8.2689E+002
 720.50  8.3464E+002
 721.00  8.4108E+002
 721.50  8.5280E+002
 722.00  8.6436E+002
 722.50  8.6986E+002
 723.00  8.6988E+002
 723.50  8.6615E+002
 724.00  8.5851E+002
 724.50  8.6392E+002
 725.00  8.8089E+002
 725.50  8.9350E+002
 726.00  8.9630E+002
 726.50  8.9418E+002
 727.00  8.8927E+002
 727.50  8.9263E+002
 728.00  9.1028E+002
 728.50  9.2753E+002
 729.00  9.3545E+002
 729.50  9.3325E+002
 730.00  9.2811E+002
 730.50  9.2122E+002
 731.00  9.0794E+002
 731.50  8.9765E+002
 732.00  8.8729E+002
 732.50  8.7065E+002
 733.00  8.6615E+002
 733.50  8.7503E+002
 734.00  8.7602E+002
 734.50  8.7878E+002
 735.00  8.8300E+002
 735.50  8.9147E+002
 736.00  9.0335E+002
 736.50  9.0833E+002
 737.00  9.1229E+002
 737.50  9.0119E+002
 738.00  8.8440E+002
 738.50  8.8540E+002
 739.00  8.9068E+002
 739.50  8.9835E+002
 740.00  9.0653E+002
 740.50  9.1156E+002
 741.00  9.1762E+002
 741.50  9.2715E+002
 742.00  9.5075E+002
 742.50  9.9612E+002
 743.00  1.0799E+003
 743.50  1.2185E+003
 744.00  1.4199E+003
 744.50  1.7079E+003
 745.00  2.0829E+003
 745.50  2.5241E+003
 746.00  3.0231E+003
 746.50  3.5561E+003
 747.00  4.0872E+003
 747.50  4.6020E+003
 748.00  5.0766E+003
 748.50  5.4953E+003
 749.00  5.8442E+003
 749.50  6.0901E+003
 750.00  6.2528E+003
 750.50  6.3577E+003
 751.00  6.4074E+003
 751.50  6.4186E+003
 752.00  6.3870E+003
 752.50  6.2613E+003
 753.00  6.0300E+003
 753.50  5.7072E+003
 754.00  5.2897E+003
 754.50  4.7858E+003
 755.00  4.2314E+003
 755.50  3.6415E+003
 756.00  3.0288E+003
 756.50  2.4452E+003
 757.00  1.9384E+003
 757.50  1.5351E+003
 758.00  1.2538E+003
 758.50  1.0852E+003
 759.00  9.8828E+002
 759.50  9.4551E+002
 760.00  9.3372E+002
 760.50  9.2807E+002
 761.00  9.3439E+002
 761.50  9.4190E+002
 762.00  9.3868E+002
 762.50  9.2481E+002
 763.00  8.9797E+002
 763.50  8.7884E+002
 764.00  8.7993E+002
 764.50  8.8797E+002
 765.00  9.0139E+002
 765.50  9.0087E+002
 766.00  8.9020E+002
 766.50  8.9002E+002
 767.00  8.9098E+002
 767.50  8.9461E+002
 768.00  9.0023E+002
 768.50  9.0386E+002
 769.00  9.0618E+002
 769.50  9.0773E+002
 770.00  9.0417E+002
 770.50  8.9405E+002
 771.00  8.7759E+002
 771.50  8.6755E+002
 772.00  8.7410E+002
 772.50  8.8492E+002
 773.00  8.9332E+002
 773.50  8.9579E+002
 774.00  8.8708E+002
 774.50  8.7918E+002
 775.00  8.7237E+002
 775.50  8.7542E+002
 776.00  8.8135E+002
 776.50  8.7842E+002
 777.00  8.8275E+002
 777.50  8.8735E+002
 778.00  8.8530E+002
 778.50  8.8319E+002
 779.00  8.8034E+002
 779.50  8.8156E+002
 780.00  8.8668E+002
 780.50  8.8999E+002
 781.00  8.9441E+002
 781.50  8.9601E+002
 782.00  8.9241E+002
 782.50  8.8766E+002
 783.00  8.7332E+002
 783.50  8.5362E+002
 784.00  8.3812E+002
 784.50  8.3197E+002
 785.00  8.3380E+002
 785.50  8.3843E+002
 786.00  8.3901E+002
 786.50  8.3941E+002
 787.00  8.4376E+002
 787.50  8.4540E+002
 788.00  8.4477E+002
 788.50  8.3921E+002
 789.00  8.2878E+002
 789.50  8.3203E+002
 790.00  8.4734E+002
 790.50  8.5544E+002
 791.00  8.6385E+002
 791.50  8.6560E+002
 792.00  8.5874E+002
 792.50  8.6274E+002
 793.00  8.6660E+002
 793.50  8.6518E+002
 794.00  8.7372E+002
 794.50  8.8452E+002
 795.00  8.8177E+002
 795.50  8.7027E+002
 796.00  8.5631E+002
 796.50  8.5088E+002
 797.00  8.4898E+002
 797.50  8.5472E+002
 798.00  8.6764E+002
 798.50  8.6848E+002
 799.00  8.7782E+002
 799.50  8.9993E+002
 800.00  9.1152E+002
 800.50  9.0377E+002
 801.00  8.8873E+002
 801.50  8.6966E+002
 802.00  8.4694E+002
 802.50  8.4039E+002
 803.00  8.4689E+002
 803.50  8.5147E+002
 804.00  8.6260E+002
 804.50  8.7669E+002
 805.00  8.8148E+002
 805.50  8.7829E+002
 806.00  8.7137E+002
 806.50  8.5492E+002
 807.00  8.4445E+002
 807.50  8.4150E+002
 808.00  8.4476E+002
 808.50  8.5552E+002
 809.00  8.6140E+002
 809.50  8.6058E+002
 810.00  8.5569E+002
 810.50  8.4234E+002
 811.00  8.3163E+002
 811.50  8.2812E+002
 812.00  8.2587E+002
 812.50  8.3314E+002
 813.00  8.4238E+002
 813.50  8.5398E+002
 814.00  8.6405E+002
 814.50  8.6833E+002
 815.00  8.6863E+002
 815.50  8.6356E+002
 816.00  8.6381E+002
 816.50  8.6983E+002
 817.00  8.6524E+002
 817.50  8.5228E+002
 818.00  8.3665E+002
 818.50  8.2173E+002
 819.00  8.1627E+002
 819.50  8.1317E+002
 820.00  8.1130E+002
 820.50  8.1223E+002
 821.00  8.2535E+002
 821.50  8.3937E+002
 822.00  8.4574E+002
 822.50  8.4560E+002
 823.00  8.3829E+002
 823.50  8.3750E+002
 824.00  8.3855E+002
 824.50  8.3298E+002
 825.00  8.2215E+002
 825.50  8.1705E+002
 826.00  8.1920E+002
 826.50  8.2605E+002
 827.00  8.3360E+002
 827.50  8.3204E+002
 828.00  8.3124E+002
 828.50  8.3710E+002
 829.00  8.5138E+002
 829.50  8.7250E+002
 830.00  8.8915E+002
 830.50  8.9964E+002
 831.00  8.9361E+002
 831.50  8.7604E+002
 832.00  8.5543E+002
 832.50  8.4315E+002
 833.00  8.3926E+002
 833.50  8.3375E+002
 834.00  8.3184E+002
 834.50  8.2659E+002
 835.00  8.2496E+002
 835.50  8.3267E+002
 836.00  8.3972E+002
 836.50  8.4896E+002
 837.00  8.5655E+002
 837.50  8.6004E+002
 838.00  8.5785E+002
 838.50  8.5035E+002
 839.00  8.4908E+002
 839.50  8.4992E+002
 840.00  8.4552E+002
 840.50  8.4107E+002
 841.00  8.2920E+002
 841.50  8.1605E+002
 842.00  8.1821E+002
 842.50  8.2268E+002
 843.00  8.2704E+002
 843.50  8.3839E+002
 844.00  8.4095E+002
 844.50  8.5093E+002
 845.00  8.6654E+002
 845.50  8.6850E+002
 846.00  8.6832E+002
 846.50  8.6619E+002
 847.00  8.6375E+002
 847.50  8.7211E+002
 848.00  8.7655E+002
 848.50  8.7477E+002
 849.00  8.7308E+002
 849.50  8.6616E+002
 850.00  8.6842E+002
 850.50  8.6507E+002
 851.00  8.5167E+002
 851.50  8.4507E+002
 852.00  8.2769E+002
 852.50  8.1179E+002
 853.00  8.1000E+002
 853.50  8.1111E+002
 854.00  8.1667E+002
 854.50  8.1933E+002
 855.00  8.1596E+002
 855.50  8.2214E+002
 856.00  8.3280E+002
 856.50  8.3798E+002
 857.00  8.2880E+002
 857.50  8.0768E+002
 858.00  7.8791E+002
 858.50  7.8560E+002
 859.00  8.0142E+002
 859.50  8.1991E+002
 860.00  8.3965E+002
 860.50  8.5319E+002
 861.00  8.5321E+002
 861.50  8.4891E+002
 862.00  8.3939E+002
 862.50  8.2843E+002
 863.00  8.2814E+002
 863.50  8.3524E+002
 864.00  8.4038E+002
 864.50  8.5203E+002
 865.00  8.5349E+002
 865.50  8.4035E+002
 866.00  8.4008E+002
 866.50  8.2992E+002
 867.00  8.2779E+002
 867.50  8.3851E+002
 868.00  8.4763E+002
 868.50  8.5253E+002
 869.00  8.4925E+002
 869.50  8.4769E+002
 870.00  8.4754E+002
 870.50  8.5428E+002
 871.00  8.6430E+002
 871.50  8.6389E+002
 872.00  8.5783E+002
 872.50  8.5388E+002
 873.00  8.5620E+002
 873.50  8.6520E+002
 874.00  8.6776E+002
 874.50  8.6516E+002
 875.00  8.5491E+002
 875.50  8.4925E+002
 876.00  8.5164E+002
 876.50  8.5545E+002
 877.00  8.5757E+002
 877.50  8.4697E+002
 878.00  8.4162E+002
 878.50  8.4058E+002
 879.00  8.4194E+002
 879.50  8.4380E+002
 880.00  8.4178E+002
 880.50  8.3554E+002
 881.00  8.2931E+002
 881.50  8.3029E+002
 882.00  8.3291E+002
 882.50  8.3715E+002
 883.00  8.4106E+002
 883.50  8.4165E+002
 884.00  8.3652E+002
 884.50  8.2967E+002
 885.00  8.2266E+002
 885.50  8.2341E+002
 886.00  8.2376E+002
 886.50  8.2641E+002
 887.00  8.2880E+002
 887.50  8.1882E+002
 888.00  8.2063E+002
 888.50  8.2154E+002
 889.00  8.2361E+002
 889.50  8.3561E+002
 890.00  8.4504E+002
 890.50  8.5611E+002
 891.00  8.6055E+002
 891.50  8.6309E+002
 892.00  8.5762E+002
 892.50  8.5351E+002
 893.00  8.5390E+002
 893.50  8.4232E+002
 894.00  8.3615E+002
 894.50  8.2838E+002
 895.00  8.2350E+002
 895.50  8.3116E+002
 896.00  8.3560E+002
 896.50  8.3488E+002
 897.00  8.3396E+002
 897.50  8.4792E+002
 898.00  8.6271E+002
 898.50  8.8590E+002
 899.00  9.0323E+002
 899.50  9.0685E+002
 900.00  9.0828E+002
 900.50  9.0433E+002
 901.00  8.8751E+002
 901.50  8.6156E+002
 902.00  8.3860E+002
 902.50  8.2272E+002
 903.00  8.1244E+002
 903.50  8.1820E+002
 904.00  8.2062E+002
 904.50  8.1804E+002
 905.00  8.2468E+002
 905.50  8.2668E+002
 906.00  8.2911E+002
 906.50  8.3057E+002
 907.00  8.3360E+002
 907.50  8.3304E+002
 908.00  8.3755E+002
 908.50  8.3216E+002
 909.00  8.2052E+002
 909.50  8.0680E+002
 910.00  7.9806E+002
 910.50  7.9738E+002
 911.00  8.0460E+002
 911.50  8.2439E+002
 912.00  8.3467E+002
 912.50  8.4245E+002
 913.00  8.4694E+002
 913.50  8.4711E+002
 914.00  8.5347E+002
 914.50  8.6473E+002
 915.00  8.7472E+002
 915.50  8.7231E+002
 916.00  8.6991E+002
 916.50  8.6451E+002
 917.00  8.5493E+002
 917.50  8.5289E+002
 918.00  8.4127E+002
 918.50  8.3209E+002
 919.00  8.3890E+002
 919.50  8.4497E+002
 920.00  8.5502E+002
 920.50  8.5543E+002
 921.00  8.4337E+002
 921.50  8.4277E+002
 922.00  8.5070E+002
 922.50  8.5736E+002
 923.00  8.5783E+002
 923.50  8.5127E+002
 924.00  8.3719E+002
 924.50  8.1676E+002
 925.00  8.0436E+002
 925.50  7.8901E+002
 926.00  7.8902E+002
 926.50  8.0196E+002
 927.00  8.1848E+002
 927.50  8.2690E+002
 928.00  8.2653E+002
 928.50  8.1912E+002
 929.00  8.0478E+002
 929.50  7.9907E+002
 930.00  7.9793E+002
 930.50  8.0172E+002
 931.00  7.9603E+002
 931.50  7.8990E+002
 932.00  7.8899E+002
 932.50  7.9793E+002
 933.00  8.1768E+002
 933.50  8.3178E+002
 934.00  8.4815E+002
 934.50  8.5940E+002
 935.00  8.6760E+002
 935.50  8.7373E+002
 936.00  8.7327E+002
 936.50  8.7943E+002
 937.00  8.8750E+002
 937.50  8.8344E+002
 938.00  8.7793E+002
 938.50  8.6950E+002
 939.00  8.6155E+002
 939.50  8.5828E+002
 940.00  8.4134E+002
 940.50  8.2335E+002
 941.00  8.1319E+002
 941.50  8.1510E+002
 942.00  8.3381E+002
 942.50  8.4828E+002
 943.00  8.5034E+002
 943.50  8.4989E+002
 944.00  8.4444E+002
 944.50  8.4517E+002
 945.00  8.4333E+002
 945.50  8.4024E+002
 946.00  8.3808E+002
 946.50  8.3762E+002
 947.00  8.3613E+002
 947.50  8.3183E+002
 948.00  8.2071E+002
 948.50  8.1497E+002
 949.00  8.1290E+002
 949.50  8.0772E+002
 950.00  8.0712E+002
 950.50  8.1126E+002
 951.00  8.1004E+002
 951.50  8.1545E+002
 952.00  8.1421E+002
 952.50  8.1125E+002
 953.00  8.1426E+002
 953.50  8.2368E+002
 954.00  8.3549E+002
 954.50  8.4842E+002
 955.00  8.5303E+002
 955.50  8.4995E+002
 956.00  8.5281E+002
 956.50  8.5292E+002
 957.00  8.5794E+002
 957.50  8.6464E+002
 958.00  8.6643E+002
 958.50  8.7281E+002
 959.00  8.8187E+002
 959.50  8.7847E+002
 960.00  8.6692E+002
 960.50  8.5414E+002
 961.00  8.4787E+002
 961.50  8.5282E+002
 962.00  8.5982E+002
 962.50  8.6141E+002
 963.00  8.4800E+002
 963.50  8.3101E+002
 964.00  8.1843E+002
 964.50  8.1392E+002
 965.00  8.1548E+002
 965.50  8.0961E+002
 966.00  7.9730E+002
 966.50  7.9469E+002
 967.00  8.0419E+002
 967.50  8.2570E+002
 968.00  8.3957E+002
 968.50  8.4206E+002
 969.00  8.4142E+002
 969.50  8.4201E+002
 970.00  8.4834E+002
 970.50  8.4544E+002
 971.00  8.3567E+002
 971.50  8.2089E+002
 972.00  8.1789E+002
 972.50  8.2403E+002
 973.00  8.3931E+002
 973.50  8.4918E+002
 974.00  8.5559E+002
 974.50  8.5555E+002
 975.00  8.5189E+002
 975.50  8.3858E+002
 976.00  8.3265E+002
 976.50  8.3024E+002
 977.00  8.3052E+002
 977.50  8.3298E+002
 978.00  8.3953E+002
 978.50  8.4545E+002
 979.00  8.5214E+002
 979.50  8.5363E+002
 980.00  8.4252E+002
 980.50  8.4037E+002
 981.00  8.4867E+002
 981.50  8.5874E+002
 982.00  8.6280E+002
 982.50  8.5801E+002
 983.00  8.4523E+002
 983.50  8.4510E+002
 984.00  8.5103E+002
 984.50  8.5428E+002
 985.00  8.5580E+002
 985.50  8.5599E+002
 986.00  8.5198E+002
 986.50  8.4249E+002
 987.00  8.2624E+002
 987.50  8.1404E+002
 988.00  8.1151E+002
 988.50  8.1452E+002
 989.00  8.1193E+002
 989.50  8.0769E+002
 990.00  8.0824E+002
 990.50  8.0855E+002
 991.00  8.1527E+002
 991.50  8.2518E+002
 992.00  8.3836E+002
 992.50  8.4487E+002
 993.00  8.3621E+002
 993.50  8.2844E+002
 994.00  8.2785E+002
 994.50  8.3315E+002
 995.00  8.3654E+002
 995.50  8.2410E+002
 996.00  8.2011E+002
 996.50  8.1775E+002
 997.00  8.2389E+002
 997.50  8.3753E+002
 998.00  8.4782E+002
 998.50  8.5941E+002
 999.00  8.6838E+002
 999.50  8.6079E+002
1000.00  8.5652E+002
1000.50  8.5982E+002
1001.00  8.5860E+002
1001.50  8.6859E+002
1002.00  8.7326E+002
1002.50  8.6876E+002
1003.00  8.5963E+002
1003.50  8.4841E+002
1004.00  8.3519E+002
1004.50  8.3353E+002
1005.00  8.2737E+002
1005.50  8.2451E+002
1006.00  8.2752E+002
1006.50  8.2598E+002
1007.00  8.2014E+002
1007.50  8.1350E+002
1008.00  8.2291E+002
1008.50  8.3927E+002
1009.00  8.5208E+002
1009.50  8.5070E+002
1010.00  8.4499E+002
1010.50  8.3966E+002
1011.00  8.3364E+002
1011.50  8.2353E+002
1012.00  8.1838E+002
1012.50  8.1213E+002
1013.00  8.0368E+002
1013.50  7.9934E+002
1014.00  8.0631E+002
1014.50  8.2457E+002
1015.00  8.4005E+002
1015.50  8.3254E+002
1016.00  8.1829E+002
1016.50  8.1100E+002
1017.00  8.2021E+002
1017.50  8.3939E+002
1018.00  8.5195E+002
1018.50  8.6012E+002
1019.00  8.6024E+002
1019.50  8.5744E+002
1020.00  8.5065E+002
1020.50  8.4041E+002
1021.00  8.4219E+002
1021.50  8.4143E+002
1022.00  8.4622E+002
1022.50  8.4509E+002
1023.00  8.5434E+002
1023.50  8.6189E+002
1024.00  8.6563E+002
1024.50  8.5327E+002
1025.00  8.3963E+002
1025.50  8.3645E+002
1026.00  8.5010E+002
1026.50  8.6595E+002
1027.00  8.7134E+002
1027.50  8.6261E+002
1028.00  8.4588E+002
1028.50  8.3013E+002
1029.00  8.2417E+002
1029.50  8.0884E+002
1030.00  8.0401E+002
1030.50  7.9954E+002
1031.00  8.0737E+002
1031.50  8.1399E+002
1032.00  8.0568E+002
1032.50  8.0239E+002
1033.00  8.0252E+002
1033.50  8.1438E+002
1034.00  8.1730E+002
1034.50  8.1894E+002
1035.00  8.2771E+002
1035.50  8.3229E+002
1036.00  8.3230E+002
1036.50  8.2341E+002
1037.00  8.2058E+002
1037.50  8.3595E+002
1038.00  8.5034E+002
1038.50  8.6286E+002
1039.00  8.6159E+002
1039.50  8.5963E+002
1040.00  8.5515E+002
1040.50  8.6101E+002
1041.00  8.6583E+002
1041.50  8.6407E+002
1042.00  8.4597E+002
1042.50  8.3700E+002
1043.00  8.3935E+002
1043.50  8.5547E+002
1044.00  8.7754E+002
1044.50  8.8569E+002
1045.00  8.9248E+002
1045.50  8.8599E+002
1046.00  8.5593E+002
1046.50  8.3453E+002
1047.00  8.2124E+002
1047.50  8.3166E+002
1048.00  8.4354E+002
1048.50  8.4559E+002
1049.00  8.3403E+002
1049.50  8.1823E+002
1050.00  8.2176E+002
1050.50  8.2474E+002
1051.00  8.3240E+002
1051.50  8.2632E+002
1052.00  8.1265E+002
1052.50  8.0099E+002
1053.00  8.0170E+002
1053.50  8.0895E+002
1054.00  8.2207E+002
1054.50  8.3380E+002
1055.00  8.3958E+002
1055.50  8.2896E+002
1056.00  8.2464E+002
1056.50  8.1207E+002
1057.00  8.1716E+002
1057.50  8.2716E+002
1058.00  8.3923E+002
1058.50  8.5503E+002
1059.00  8.6498E+002
1059.50  8.6593E+002
1060.00  8.5091E+002
1060.50  8.4162E+002
1061.00  8.4291E+002
1061.50  8.4512E+002
1062.00  8.3786E+002
1062.50  8.3186E+002
1063.00  8.3966E+002
1063.50  8.5163E+002
1064.00  8.5589E+002
1064.50  8.4856E+002
1065.00  8.4297E+002
1065.50  8.4219E+002
1066.00  8.3922E+002
1066.50  8.3480E+002
1067.00  8.3407E+002
1067.50  8.2907E+002
1068.00  8.3363E+002
1068.50  8.3540E+002
1069.00  8.3461E+002
1069.50  8.3525E+002
1070.00  8.3651E+002
1070.50  8.3766E+002
1071.00  8.3683E+002
1071.50  8.3222E+002
1072.00  8.2821E+002
1072.50  6.8486E+002
