" File: Users\LabUser\Documents\MonochromatorCal
"  SCOPE->  Wave:693.48nm  Pix:1050  Val:908.000  Time:1000ms  Avg:1  Sm:1  Sg:0  Tc:off  SNAP  Xt:3  Ch:1  Xtrig  
 191.00  9.5832E+002
 191.50  9.3975E+002
 192.00  9.2204E+002
 192.50  9.1270E+002
 193.00  9.3185E+002
 193.50  9.4932E+002
 194.00  9.1804E+002
 194.50  8.8252E+002
 195.00  8.6327E+002
 195.50  8.4797E+002
 196.00  8.4546E+002
 196.50  8.7946E+002
 197.00  9.2460E+002
 197.50  9.2533E+002
 198.00  8.9805E+002
 198.50  8.8574E+002
 199.00  8.8334E+002
 199.50  8.7400E+002
 200.00  8.7306E+002
 200.50  8.8953E+002
 201.00  8.9039E+002
 201.50  9.1592E+002
 202.00  9.1473E+002
 202.50  9.0699E+002
 203.00  8.9743E+002
 203.50  8.8539E+002
 204.00  8.7319E+002
 204.50  8.5919E+002
 205.00  8.5127E+002
 205.50  8.5850E+002
 206.00  8.6873E+002
 206.50  8.7574E+002
 207.00  8.8829E+002
 207.50  9.0929E+002
 208.00  9.1730E+002
 208.50  9.1357E+002
 209.00  9.1312E+002
 209.50  9.1932E+002
 210.00  9.2013E+002
 210.50  9.1662E+002
 211.00  9.2034E+002
 211.50  9.2779E+002
 212.00  9.2828E+002
 212.50  9.2674E+002
 213.00  9.3008E+002
 213.50  9.2799E+002
 214.00  9.2266E+002
 214.50  9.2447E+002
 215.00  9.2113E+002
 215.50  9.0685E+002
 216.00  9.0680E+002
 216.50  9.0662E+002
 217.00  8.9973E+002
 217.50  8.9820E+002
 218.00  9.0114E+002
 218.50  9.0573E+002
 219.00  9.1190E+002
 219.50  9.1856E+002
 220.00  9.2672E+002
 220.50  9.3606E+002
 221.00  9.4168E+002
 221.50  9.4104E+002
 222.00  9.3708E+002
 222.50  9.3127E+002
 223.00  9.2003E+002
 223.50  9.1043E+002
 224.00  8.9840E+002
 224.50  8.9802E+002
 225.00  9.0209E+002
 225.50  9.0193E+002
 226.00  8.9652E+002
 226.50  8.9529E+002
 227.00  8.9752E+002
 227.50  9.0018E+002
 228.00  9.0363E+002
 228.50  9.0947E+002
 229.00  9.1314E+002
 229.50  9.0817E+002
 230.00  8.9776E+002
 230.50  8.9221E+002
 231.00  8.9318E+002
 231.50  8.9117E+002
 232.00  8.9299E+002
 232.50  9.0089E+002
 233.00  9.0237E+002
 233.50  8.9594E+002
 234.00  8.9865E+002
 234.50  8.9782E+002
 235.00  8.8828E+002
 235.50  8.8197E+002
 236.00  8.7937E+002
 236.50  8.7678E+002
 237.00  8.7757E+002
 237.50  8.8005E+002
 238.00  8.8034E+002
 238.50  8.8061E+002
 239.00  8.8141E+002
 239.50  8.8142E+002
 240.00  8.8786E+002
 240.50  9.0355E+002
 241.00  9.1914E+002
 241.50  9.2549E+002
 242.00  9.2897E+002
 242.50  9.2225E+002
 243.00  9.0915E+002
 243.50  8.9932E+002
 244.00  8.9582E+002
 244.50  8.9799E+002
 245.00  9.0179E+002
 245.50  9.0450E+002
 246.00  9.0428E+002
 246.50  9.0930E+002
 247.00  9.1729E+002
 247.50  9.2316E+002
 248.00  9.2707E+002
 248.50  9.2983E+002
 249.00  9.2733E+002
 249.50  9.1718E+002
 250.00  9.0684E+002
 250.50  9.0011E+002
 251.00  8.9690E+002
 251.50  8.9724E+002
 252.00  9.0357E+002
 252.50  9.1048E+002
 253.00  9.1868E+002
 253.50  9.2781E+002
 254.00  9.2822E+002
 254.50  9.2059E+002
 255.00  9.1169E+002
 255.50  9.0378E+002
 256.00  8.9318E+002
 256.50  8.8167E+002
 257.00  8.7612E+002
 257.50  8.7759E+002
 258.00  8.8244E+002
 258.50  8.8798E+002
 259.00  8.8987E+002
 259.50  8.8403E+002
 260.00  8.7534E+002
 260.50  8.6975E+002
 261.00  8.6259E+002
 261.50  8.5832E+002
 262.00  8.7218E+002
 262.50  8.9148E+002
 263.00  8.9586E+002
 263.50  8.9195E+002
 264.00  8.9081E+002
 264.50  8.8223E+002
 265.00  8.6471E+002
 265.50  8.5156E+002
 266.00  8.5887E+002
 266.50  8.7784E+002
 267.00  8.9207E+002
 267.50  9.0280E+002
 268.00  9.1151E+002
 268.50  9.0985E+002
 269.00  9.0001E+002
 269.50  8.9225E+002
 270.00  8.8784E+002
 270.50  8.8596E+002
 271.00  8.8566E+002
 271.50  8.8482E+002
 272.00  8.8441E+002
 272.50  8.7911E+002
 273.00  8.6751E+002
 273.50  8.6088E+002
 274.00  8.6491E+002
 274.50  8.6993E+002
 275.00  8.8212E+002
 275.50  9.0179E+002
 276.00  9.0904E+002
 276.50  9.1192E+002
 277.00  9.1219E+002
 277.50  8.9910E+002
 278.00  8.8952E+002
 278.50  8.9264E+002
 279.00  8.9109E+002
 279.50  8.8279E+002
 280.00  8.7878E+002
 280.50  8.7968E+002
 281.00  8.7900E+002
 281.50  8.7689E+002
 282.00  8.7533E+002
 282.50  8.7197E+002
 283.00  8.6511E+002
 283.50  8.6033E+002
 284.00  8.6008E+002
 284.50  8.5990E+002
 285.00  8.6223E+002
 285.50  8.6908E+002
 286.00  8.7147E+002
 286.50  8.7072E+002
 287.00  8.7832E+002
 287.50  8.8721E+002
 288.00  8.9112E+002
 288.50  8.9706E+002
 289.00  8.9720E+002
 289.50  8.9174E+002
 290.00  8.9579E+002
 290.50  9.0178E+002
 291.00  9.0759E+002
 291.50  9.1717E+002
 292.00  9.2339E+002
 292.50  9.2537E+002
 293.00  9.2368E+002
 293.50  9.1936E+002
 294.00  9.1835E+002
 294.50  9.1812E+002
 295.00  9.1437E+002
 295.50  9.1388E+002
 296.00  9.1411E+002
 296.50  9.0907E+002
 297.00  9.0233E+002
 297.50  8.9476E+002
 298.00  8.8333E+002
 298.50  8.7120E+002
 299.00  8.6134E+002
 299.50  8.5454E+002
 300.00  8.5615E+002
 300.50  8.6666E+002
 301.00  8.7817E+002
 301.50  8.8899E+002
 302.00  9.0297E+002
 302.50  9.1430E+002
 303.00  9.1697E+002
 303.50  9.1508E+002
 304.00  9.2042E+002
 304.50  9.2368E+002
 305.00  9.1508E+002
 305.50  9.1114E+002
 306.00  9.1413E+002
 306.50  9.1005E+002
 307.00  9.0962E+002
 307.50  9.1819E+002
 308.00  9.1953E+002
 308.50  9.1872E+002
 309.00  9.1945E+002
 309.50  9.2506E+002
 310.00  9.3837E+002
 310.50  9.4697E+002
 311.00  9.5159E+002
 311.50  9.5361E+002
 312.00  9.4870E+002
 312.50  9.3848E+002
 313.00  9.3098E+002
 313.50  9.2552E+002
 314.00  9.1899E+002
 314.50  9.0914E+002
 315.00  8.9842E+002
 315.50  8.9432E+002
 316.00  8.9600E+002
 316.50  8.9682E+002
 317.00  8.9694E+002
 317.50  8.9606E+002
 318.00  8.8890E+002
 318.50  8.7667E+002
 319.00  8.6821E+002
 319.50  8.6929E+002
 320.00  8.7959E+002
 320.50  8.9681E+002
 321.00  9.1269E+002
 321.50  9.2069E+002
 322.00  9.2230E+002
 322.50  9.1698E+002
 323.00  8.9970E+002
 323.50  8.8528E+002
 324.00  8.8126E+002
 324.50  8.7078E+002
 325.00  8.5405E+002
 325.50  8.5172E+002
 326.00  8.6341E+002
 326.50  8.7720E+002
 327.00  8.9273E+002
 327.50  9.1097E+002
 328.00  9.1491E+002
 328.50  9.0426E+002
 329.00  8.8988E+002
 329.50  8.8034E+002
 330.00  8.7184E+002
 330.50  8.7330E+002
 331.00  8.7949E+002
 331.50  8.8074E+002
 332.00  8.8395E+002
 332.50  8.9223E+002
 333.00  8.9861E+002
 333.50  9.0291E+002
 334.00  9.1231E+002
 334.50  9.2614E+002
 335.00  9.3987E+002
 335.50  9.5140E+002
 336.00  9.6056E+002
 336.50  9.6415E+002
 337.00  9.6328E+002
 337.50  9.5886E+002
 338.00  9.4837E+002
 338.50  9.3198E+002
 339.00  9.1642E+002
 339.50  9.0531E+002
 340.00  8.9992E+002
 340.50  9.0368E+002
 341.00  9.1677E+002
 341.50  9.3321E+002
 342.00  9.5082E+002
 342.50  9.6736E+002
 343.00  9.9424E+002
 343.50  1.0361E+003
 344.00  1.0677E+003
 344.50  1.0747E+003
 345.00  1.0656E+003
 345.50  1.0398E+003
 346.00  9.9395E+002
 346.50  9.5519E+002
 347.00  9.4129E+002
 347.50  9.4346E+002
 348.00  9.5000E+002
 348.50  9.5457E+002
 349.00  9.5533E+002
 349.50  9.4945E+002
 350.00  9.3729E+002
 350.50  9.2683E+002
 351.00  9.2582E+002
 351.50  9.3105E+002
 352.00  9.3810E+002
 352.50  9.4108E+002
 353.00  9.3634E+002
 353.50  9.2389E+002
 354.00  9.1303E+002
 354.50  9.0288E+002
 355.00  8.9407E+002
 355.50  8.9156E+002
 356.00  8.9161E+002
 356.50  8.8871E+002
 357.00  8.8649E+002
 357.50  8.8517E+002
 358.00  8.8077E+002
 358.50  8.7838E+002
 359.00  8.7663E+002
 359.50  8.7374E+002
 360.00  8.7650E+002
 360.50  8.8136E+002
 361.00  8.8443E+002
 361.50  8.9055E+002
 362.00  9.0371E+002
 362.50  9.1548E+002
 363.00  9.2490E+002
 363.50  9.2580E+002
 364.00  9.2535E+002
 364.50  9.1978E+002
 365.00  9.1049E+002
 365.50  9.0957E+002
 366.00  9.1449E+002
 366.50  9.1564E+002
 367.00  9.1315E+002
 367.50  9.1205E+002
 368.00  9.0593E+002
 368.50  9.0460E+002
 369.00  9.0487E+002
 369.50  9.1153E+002
 370.00  9.2944E+002
 370.50  9.4571E+002
 371.00  9.4855E+002
 371.50  9.4700E+002
 372.00  9.4009E+002
 372.50  9.2897E+002
 373.00  9.2000E+002
 373.50  9.1168E+002
 374.00  8.9737E+002
 374.50  8.7721E+002
 375.00  8.5803E+002
 375.50  8.4927E+002
 376.00  8.5331E+002
 376.50  8.7065E+002
 377.00  8.9599E+002
 377.50  9.0659E+002
 378.00  9.1726E+002
 378.50  9.2046E+002
 379.00  9.1320E+002
 379.50  9.1354E+002
 380.00  9.2058E+002
 380.50  9.2004E+002
 381.00  9.3116E+002
 381.50  9.5461E+002
 382.00  9.7068E+002
 382.50  9.8082E+002
 383.00  9.8831E+002
 383.50  9.9135E+002
 384.00  9.7813E+002
 384.50  9.6010E+002
 385.00  9.4762E+002
 385.50  9.3382E+002
 386.00  9.1279E+002
 386.50  8.9314E+002
 387.00  8.8484E+002
 387.50  8.8201E+002
 388.00  8.7928E+002
 388.50  8.8084E+002
 389.00  8.8699E+002
 389.50  8.9201E+002
 390.00  8.9464E+002
 390.50  8.9744E+002
 391.00  9.0007E+002
 391.50  9.0203E+002
 392.00  8.9676E+002
 392.50  8.9489E+002
 393.00  8.9487E+002
 393.50  8.8883E+002
 394.00  8.8274E+002
 394.50  8.7615E+002
 395.00  8.6855E+002
 395.50  8.6162E+002
 396.00  8.6408E+002
 396.50  8.7322E+002
 397.00  8.8905E+002
 397.50  9.0840E+002
 398.00  9.3175E+002
 398.50  9.4756E+002
 399.00  9.5336E+002
 399.50  9.5388E+002
 400.00  9.4454E+002
 400.50  9.2760E+002
 401.00  9.1761E+002
 401.50  9.2304E+002
 402.00  9.3016E+002
 402.50  9.3699E+002
 403.00  9.4041E+002
 403.50  9.3516E+002
 404.00  9.2394E+002
 404.50  9.1873E+002
 405.00  9.2076E+002
 405.50  9.2588E+002
 406.00  9.2849E+002
 406.50  9.2573E+002
 407.00  9.2175E+002
 407.50  9.2032E+002
 408.00  9.2292E+002
 408.50  9.3079E+002
 409.00  9.3891E+002
 409.50  9.4357E+002
 410.00  9.4370E+002
 410.50  9.3933E+002
 411.00  9.3630E+002
 411.50  9.3833E+002
 412.00  9.3530E+002
 412.50  9.2448E+002
 413.00  9.1394E+002
 413.50  9.0460E+002
 414.00  8.9235E+002
 414.50  8.8604E+002
 415.00  8.9388E+002
 415.50  9.0930E+002
 416.00  9.2274E+002
 416.50  9.3208E+002
 417.00  9.3385E+002
 417.50  9.2508E+002
 418.00  9.1429E+002
 418.50  9.0208E+002
 419.00  8.8668E+002
 419.50  8.7741E+002
 420.00  8.7752E+002
 420.50  8.7081E+002
 421.00  8.6688E+002
 421.50  8.8311E+002
 422.00  8.9580E+002
 422.50  8.9496E+002
 423.00  9.0013E+002
 423.50  9.0408E+002
 424.00  8.9118E+002
 424.50  8.8545E+002
 425.00  8.8734E+002
 425.50  8.8938E+002
 426.00  8.9937E+002
 426.50  9.1443E+002
 427.00  9.2155E+002
 427.50  9.2414E+002
 428.00  9.2290E+002
 428.50  9.1792E+002
 429.00  9.1652E+002
 429.50  9.2273E+002
 430.00  9.3359E+002
 430.50  9.4193E+002
 431.00  9.4179E+002
 431.50  9.3455E+002
 432.00  9.2720E+002
 432.50  9.2999E+002
 433.00  9.4307E+002
 433.50  9.6650E+002
 434.00  9.9449E+002
 434.50  1.0151E+003
 435.00  1.0216E+003
 435.50  1.0144E+003
 436.00  9.9592E+002
 436.50  9.7990E+002
 437.00  9.7593E+002
 437.50  9.7722E+002
 438.00  9.8057E+002
 438.50  9.8845E+002
 439.00  9.9406E+002
 439.50  9.9468E+002
 440.00  1.0006E+003
 440.50  1.0132E+003
 441.00  1.0254E+003
 441.50  1.0325E+003
 442.00  1.0350E+003
 442.50  1.0386E+003
 443.00  1.0509E+003
 443.50  1.0794E+003
 444.00  1.1339E+003
 444.50  1.2171E+003
 445.00  1.3424E+003
 445.50  1.5217E+003
 446.00  1.7554E+003
 446.50  2.0476E+003
 447.00  2.3947E+003
 447.50  2.7779E+003
 448.00  3.1857E+003
 448.50  3.6244E+003
 449.00  4.1054E+003
 449.50  4.6082E+003
 450.00  5.1097E+003
 450.50  5.5995E+003
 451.00  6.0380E+003
 451.50  6.4092E+003
 452.00  6.7210E+003
 452.50  6.9533E+003
 453.00  7.0821E+003
 453.50  7.0810E+003
 454.00  6.9019E+003
 454.50  6.5440E+003
 455.00  6.0397E+003
 455.50  5.4107E+003
 456.00  4.7014E+003
 456.50  3.9835E+003
 457.00  3.3050E+003
 457.50  2.6986E+003
 458.00  2.2018E+003
 458.50  1.8312E+003
 459.00  1.5654E+003
 459.50  1.3761E+003
 460.00  1.2478E+003
 460.50  1.1679E+003
 461.00  1.1356E+003
 461.50  1.1349E+003
 462.00  1.1484E+003
 462.50  1.1655E+003
 463.00  1.1672E+003
 463.50  1.1408E+003
 464.00  1.1034E+003
 464.50  1.0797E+003
 465.00  1.0604E+003
 465.50  1.0409E+003
 466.00  1.0326E+003
 466.50  1.0298E+003
 467.00  1.0105E+003
 467.50  9.8692E+002
 468.00  9.7419E+002
 468.50  9.5907E+002
 469.00  9.4239E+002
 469.50  9.3788E+002
 470.00  9.4256E+002
 470.50  9.4987E+002
 471.00  9.5982E+002
 471.50  9.5891E+002
 472.00  9.4733E+002
 472.50  9.3733E+002
 473.00  9.2612E+002
 473.50  9.1543E+002
 474.00  9.1960E+002
 474.50  9.2518E+002
 475.00  9.2037E+002
 475.50  9.2374E+002
 476.00  9.3596E+002
 476.50  9.4534E+002
 477.00  9.5507E+002
 477.50  9.6705E+002
 478.00  9.6958E+002
 478.50  9.5706E+002
 479.00  9.4338E+002
 479.50  9.3727E+002
 480.00  9.3611E+002
 480.50  9.4249E+002
 481.00  9.5549E+002
 481.50  9.6656E+002
 482.00  9.6764E+002
 482.50  9.5352E+002
 483.00  9.3601E+002
 483.50  9.2556E+002
 484.00  9.2455E+002
 484.50  9.3876E+002
 485.00  9.5506E+002
 485.50  9.5739E+002
 486.00  9.5662E+002
 486.50  9.5016E+002
 487.00  9.3729E+002
 487.50  9.3315E+002
 488.00  9.3445E+002
 488.50  9.3266E+002
 489.00  9.2615E+002
 489.50  9.2130E+002
 490.00  9.1862E+002
 490.50  9.1527E+002
 491.00  9.1282E+002
 491.50  9.1196E+002
 492.00  9.0744E+002
 492.50  9.0477E+002
 493.00  9.0932E+002
 493.50  9.1583E+002
 494.00  9.1804E+002
 494.50  9.2186E+002
 495.00  9.2935E+002
 495.50  9.2819E+002
 496.00  9.2780E+002
 496.50  9.2979E+002
 497.00  9.2302E+002
 497.50  9.0879E+002
 498.00  8.9551E+002
 498.50  8.8680E+002
 499.00  8.8683E+002
 499.50  8.9549E+002
 500.00  9.1182E+002
 500.50  9.2786E+002
 501.00  9.3706E+002
 501.50  9.3933E+002
 502.00  9.2755E+002
 502.50  9.0449E+002
 503.00  8.8647E+002
 503.50  8.7271E+002
 504.00  8.6296E+002
 504.50  8.6498E+002
 505.00  8.7446E+002
 505.50  8.9779E+002
 506.00  9.2198E+002
 506.50  9.3456E+002
 507.00  9.4117E+002
 507.50  9.4346E+002
 508.00  9.3252E+002
 508.50  9.1875E+002
 509.00  9.0943E+002
 509.50  8.9578E+002
 510.00  8.7771E+002
 510.50  8.7038E+002
 511.00  8.7164E+002
 511.50  8.7236E+002
 512.00  8.8173E+002
 512.50  8.9410E+002
 513.00  8.9461E+002
 513.50  8.9568E+002
 514.00  9.0248E+002
 514.50  9.0980E+002
 515.00  9.0771E+002
 515.50  9.0516E+002
 516.00  9.1017E+002
 516.50  9.1362E+002
 517.00  9.1489E+002
 517.50  9.2332E+002
 518.00  9.2764E+002
 518.50  9.2249E+002
 519.00  9.1367E+002
 519.50  9.0631E+002
 520.00  9.0261E+002
 520.50  8.9706E+002
 521.00  8.9425E+002
 521.50  9.0689E+002
 522.00  9.2186E+002
 522.50  9.2609E+002
 523.00  9.2734E+002
 523.50  9.1978E+002
 524.00  9.0470E+002
 524.50  8.9243E+002
 525.00  8.9102E+002
 525.50  9.0035E+002
 526.00  9.0802E+002
 526.50  9.0771E+002
 527.00  9.2795E+002
 527.50  9.6302E+002
 528.00  9.7910E+002
 528.50  9.8721E+002
 529.00  9.9412E+002
 529.50  9.6400E+002
 530.00  9.2019E+002
 530.50  9.0476E+002
 531.00  9.0248E+002
 531.50  9.0165E+002
 532.00  9.0377E+002
 532.50  9.0440E+002
 533.00  8.9716E+002
 533.50  8.8708E+002
 534.00  8.8409E+002
 534.50  8.8872E+002
 535.00  8.9103E+002
 535.50  8.9006E+002
 536.00  8.8915E+002
 536.50  8.7651E+002
 537.00  8.6872E+002
 537.50  8.7520E+002
 538.00  8.8137E+002
 538.50  8.8442E+002
 539.00  8.9283E+002
 539.50  9.0580E+002
 540.00  9.1823E+002
 540.50  9.2653E+002
 541.00  9.3385E+002
 541.50  9.4072E+002
 542.00  9.3892E+002
 542.50  9.3431E+002
 543.00  9.3457E+002
 543.50  9.3280E+002
 544.00  9.2472E+002
 544.50  9.2921E+002
 545.00  9.3880E+002
 545.50  9.3963E+002
 546.00  9.3861E+002
 546.50  9.3602E+002
 547.00  9.2700E+002
 547.50  9.2316E+002
 548.00  9.3050E+002
 548.50  9.3952E+002
 549.00  9.3943E+002
 549.50  9.3662E+002
 550.00  9.3080E+002
 550.50  9.1130E+002
 551.00  8.9951E+002
 551.50  9.0221E+002
 552.00  9.0863E+002
 552.50  9.1497E+002
 553.00  9.2389E+002
 553.50  9.2842E+002
 554.00  9.2067E+002
 554.50  9.0667E+002
 555.00  9.0627E+002
 555.50  9.0967E+002
 556.00  9.1776E+002
 556.50  9.3259E+002
 557.00  9.3956E+002
 557.50  9.3985E+002
 558.00  9.3933E+002
 558.50  9.4232E+002
 559.00  9.5458E+002
 559.50  9.6939E+002
 560.00  9.6847E+002
 560.50  9.5575E+002
 561.00  9.4806E+002
 561.50  9.4115E+002
 562.00  9.3483E+002
 562.50  9.3188E+002
 563.00  9.2364E+002
 563.50  9.1397E+002
 564.00  9.0320E+002
 564.50  8.9654E+002
 565.00  8.9435E+002
 565.50  8.8602E+002
 566.00  8.7635E+002
 566.50  8.7599E+002
 567.00  8.7888E+002
 567.50  8.8529E+002
 568.00  9.0267E+002
 568.50  9.1980E+002
 569.00  9.2920E+002
 569.50  9.3264E+002
 570.00  9.2481E+002
 570.50  9.0851E+002
 571.00  8.9402E+002
 571.50  8.8149E+002
 572.00  8.7288E+002
 572.50  8.7985E+002
 573.00  8.9756E+002
 573.50  9.1228E+002
 574.00  9.2673E+002
 574.50  9.4036E+002
 575.00  9.3673E+002
 575.50  9.2141E+002
 576.00  9.1261E+002
 576.50  9.0846E+002
 577.00  8.9746E+002
 577.50  8.8979E+002
 578.00  8.9127E+002
 578.50  8.8195E+002
 579.00  8.7783E+002
 579.50  8.8987E+002
 580.00  8.8912E+002
 580.50  8.9011E+002
 581.00  9.0029E+002
 581.50  9.0606E+002
 582.00  9.1780E+002
 582.50  9.2603E+002
 583.00  9.1359E+002
 583.50  8.9892E+002
 584.00  8.8610E+002
 584.50  8.7409E+002
 585.00  8.7556E+002
 585.50  8.8777E+002
 586.00  8.8696E+002
 586.50  8.7796E+002
 587.00  8.7768E+002
 587.50  8.7418E+002
 588.00  8.7141E+002
 588.50  8.8900E+002
 589.00  9.0953E+002
 589.50  9.1800E+002
 590.00  9.2311E+002
 590.50  9.2040E+002
 591.00  9.1054E+002
 591.50  9.0090E+002
 592.00  9.0401E+002
 592.50  9.1949E+002
 593.00  9.3451E+002
 593.50  9.4572E+002
 594.00  9.4807E+002
 594.50  9.3677E+002
 595.00  9.2226E+002
 595.50  9.0141E+002
 596.00  8.8444E+002
 596.50  8.7809E+002
 597.00  8.7784E+002
 597.50  8.8888E+002
 598.00  8.9968E+002
 598.50  9.0281E+002
 599.00  9.0491E+002
 599.50  9.0378E+002
 600.00  9.0575E+002
 600.50  9.1771E+002
 601.00  9.2349E+002
 601.50  9.2086E+002
 602.00  9.1792E+002
 602.50  9.1401E+002
 603.00  9.1206E+002
 603.50  9.0950E+002
 604.00  9.0042E+002
 604.50  8.9095E+002
 605.00  8.7840E+002
 605.50  8.6458E+002
 606.00  8.5864E+002
 606.50  8.5672E+002
 607.00  8.6045E+002
 607.50  8.6771E+002
 608.00  8.7170E+002
 608.50  8.7511E+002
 609.00  8.7812E+002
 609.50  8.7353E+002
 610.00  8.7119E+002
 610.50  8.7576E+002
 611.00  8.8510E+002
 611.50  8.9543E+002
 612.00  9.1013E+002
 612.50  9.3168E+002
 613.00  9.3878E+002
 613.50  9.3530E+002
 614.00  9.3063E+002
 614.50  9.2790E+002
 615.00  9.2972E+002
 615.50  9.2800E+002
 616.00  9.2349E+002
 616.50  9.1997E+002
 617.00  9.1138E+002
 617.50  9.0914E+002
 618.00  9.1600E+002
 618.50  9.1418E+002
 619.00  9.0658E+002
 619.50  9.0023E+002
 620.00  9.0080E+002
 620.50  9.1427E+002
 621.00  9.3057E+002
 621.50  9.4400E+002
 622.00  9.5315E+002
 622.50  9.5406E+002
 623.00  9.5476E+002
 623.50  9.5548E+002
 624.00  9.4774E+002
 624.50  9.3487E+002
 625.00  9.2702E+002
 625.50  9.2664E+002
 626.00  9.2542E+002
 626.50  9.3931E+002
 627.00  9.5320E+002
 627.50  9.5527E+002
 628.00  9.5298E+002
 628.50  9.3888E+002
 629.00  9.2071E+002
 629.50  9.0988E+002
 630.00  9.0521E+002
 630.50  9.3303E+002
 631.00  9.5885E+002
 631.50  9.6702E+002
 632.00  9.6785E+002
 632.50  9.4531E+002
 633.00  9.1192E+002
 633.50  8.9761E+002
 634.00  8.8823E+002
 634.50  8.8260E+002
 635.00  8.8327E+002
 635.50  8.8769E+002
 636.00  8.9299E+002
 636.50  8.9615E+002
 637.00  8.9835E+002
 637.50  8.9237E+002
 638.00  8.7939E+002
 638.50  8.7994E+002
 639.00  8.9387E+002
 639.50  9.2098E+002
 640.00  9.4403E+002
 640.50  9.5389E+002
 641.00  9.5627E+002
 641.50  9.3877E+002
 642.00  9.1963E+002
 642.50  9.1426E+002
 643.00  9.1456E+002
 643.50  9.1469E+002
 644.00  9.1742E+002
 644.50  9.1832E+002
 645.00  9.1372E+002
 645.50  9.1619E+002
 646.00  9.2075E+002
 646.50  9.3459E+002
 647.00  9.5315E+002
 647.50  9.5782E+002
 648.00  9.5801E+002
 648.50  9.4813E+002
 649.00  9.2840E+002
 649.50  9.1973E+002
 650.00  9.2118E+002
 650.50  9.3989E+002
 651.00  9.6209E+002
 651.50  9.8107E+002
 652.00  9.8986E+002
 652.50  9.6886E+002
 653.00  9.4297E+002
 653.50  9.3572E+002
 654.00  9.3234E+002
 654.50  9.3959E+002
 655.00  9.4718E+002
 655.50  9.3850E+002
 656.00  9.1894E+002
 656.50  9.0320E+002
 657.00  8.9230E+002
 657.50  8.8309E+002
 658.00  8.8017E+002
 658.50  8.8212E+002
 659.00  8.8197E+002
 659.50  8.7816E+002
 660.00  8.7859E+002
 660.50  8.9065E+002
 661.00  9.0473E+002
 661.50  9.1732E+002
 662.00  9.2471E+002
 662.50  9.2139E+002
 663.00  9.0480E+002
 663.50  8.9358E+002
 664.00  8.9620E+002
 664.50  9.0250E+002
 665.00  9.0983E+002
 665.50  9.0962E+002
 666.00  9.0755E+002
 666.50  9.0813E+002
 667.00  8.9938E+002
 667.50  8.9732E+002
 668.00  9.0434E+002
 668.50  9.0597E+002
 669.00  9.0989E+002
 669.50  9.1914E+002
 670.00  9.2384E+002
 670.50  9.2559E+002
 671.00  9.2969E+002
 671.50  9.2842E+002
 672.00  9.3040E+002
 672.50  9.4436E+002
 673.00  9.6143E+002
 673.50  9.7100E+002
 674.00  9.6790E+002
 674.50  9.5430E+002
 675.00  9.3693E+002
 675.50  9.2644E+002
 676.00  9.3656E+002
 676.50  9.5556E+002
 677.00  9.5883E+002
 677.50  9.5333E+002
 678.00  9.4306E+002
 678.50  9.1826E+002
 679.00  8.9664E+002
 679.50  8.9451E+002
 680.00  9.0244E+002
 680.50  9.1499E+002
 681.00  9.3432E+002
 681.50  9.4626E+002
 682.00  9.4488E+002
 682.50  9.3114E+002
 683.00  9.1867E+002
 683.50  9.1516E+002
 684.00  9.1536E+002
 684.50  9.2465E+002
 685.00  9.4017E+002
 685.50  9.4537E+002
 686.00  9.4263E+002
 686.50  9.3477E+002
 687.00  9.1441E+002
 687.50  8.9786E+002
 688.00  8.8547E+002
 688.50  8.7771E+002
 689.00  8.8316E+002
 689.50  8.8722E+002
 690.00  8.9151E+002
 690.50  8.9821E+002
 691.00  8.9205E+002
 691.50  8.9535E+002
 692.00  9.0228E+002
 692.50  9.0061E+002
 693.00  9.0425E+002
 693.50  9.0810E+002
 694.00  9.1101E+002
 694.50  9.2067E+002
 695.00  9.3913E+002
 695.50  9.5091E+002
 696.00  9.5297E+002
 696.50  9.4865E+002
 697.00  9.4078E+002
 697.50  9.4152E+002
 698.00  9.4429E+002
 698.50  9.4743E+002
 699.00  9.4920E+002
 699.50  9.3560E+002
 700.00  9.2430E+002
 700.50  9.2314E+002
 701.00  9.1824E+002
 701.50  9.1895E+002
 702.00  9.2698E+002
 702.50  9.2403E+002
 703.00  9.1648E+002
 703.50  9.0776E+002
 704.00  8.9921E+002
 704.50  9.0612E+002
 705.00  9.2258E+002
 705.50  9.4253E+002
 706.00  9.4789E+002
 706.50  9.3707E+002
 707.00  9.2137E+002
 707.50  9.0809E+002
 708.00  9.0520E+002
 708.50  9.0301E+002
 709.00  9.0469E+002
 709.50  9.0886E+002
 710.00  9.1384E+002
 710.50  9.2271E+002
 711.00  9.3147E+002
 711.50  9.3578E+002
 712.00  9.2670E+002
 712.50  9.0562E+002
 713.00  8.8490E+002
 713.50  8.7480E+002
 714.00  8.7647E+002
 714.50  8.9805E+002
 715.00  9.2464E+002
 715.50  9.4326E+002
 716.00  9.5040E+002
 716.50  9.4241E+002
 717.00  9.2571E+002
 717.50  9.0814E+002
 718.00  9.0015E+002
 718.50  9.0612E+002
 719.00  9.1936E+002
 719.50  9.2928E+002
 720.00  9.3728E+002
 720.50  9.4410E+002
 721.00  9.5315E+002
 721.50  9.6315E+002
 722.00  9.6727E+002
 722.50  9.6651E+002
 723.00  9.5782E+002
 723.50  9.4981E+002
 724.00  9.5147E+002
 724.50  9.5079E+002
 725.00  9.4944E+002
 725.50  9.5850E+002
 726.00  9.6177E+002
 726.50  9.5255E+002
 727.00  9.4114E+002
 727.50  9.2836E+002
 728.00  9.2051E+002
 728.50  9.3046E+002
 729.00  9.4490E+002
 729.50  9.5307E+002
 730.00  9.4907E+002
 730.50  9.3839E+002
 731.00  9.2698E+002
 731.50  9.2319E+002
 732.00  9.2347E+002
 732.50  9.1956E+002
 733.00  9.1510E+002
 733.50  9.0841E+002
 734.00  9.0502E+002
 734.50  9.1120E+002
 735.00  9.1899E+002
 735.50  9.2362E+002
 736.00  9.1473E+002
 736.50  9.0675E+002
 737.00  9.0991E+002
 737.50  9.1977E+002
 738.00  9.4296E+002
 738.50  9.5564E+002
 739.00  9.5346E+002
 739.50  9.3772E+002
 740.00  9.1040E+002
 740.50  8.8910E+002
 741.00  8.8271E+002
 741.50  8.9016E+002
 742.00  9.0397E+002
 742.50  9.1135E+002
 743.00  9.1490E+002
 743.50  9.1506E+002
 744.00  9.1030E+002
 744.50  9.1482E+002
 745.00  9.2004E+002
 745.50  9.1566E+002
 746.00  9.1775E+002
 746.50  9.1627E+002
 747.00  9.1679E+002
 747.50  9.2419E+002
 748.00  9.2330E+002
 748.50  9.1697E+002
 749.00  9.1415E+002
 749.50  9.1253E+002
 750.00  9.0548E+002
 750.50  9.0860E+002
 751.00  9.1499E+002
 751.50  9.1048E+002
 752.00  9.1433E+002
 752.50  9.2320E+002
 753.00  9.2678E+002
 753.50  9.3125E+002
 754.00  9.4082E+002
 754.50  9.4613E+002
 755.00  9.4488E+002
 755.50  9.4676E+002
 756.00  9.5779E+002
 756.50  9.6282E+002
 757.00  9.5527E+002
 757.50  9.4463E+002
 758.00  9.3574E+002
 758.50  9.3397E+002
 759.00  9.4157E+002
 759.50  9.4729E+002
 760.00  9.4190E+002
 760.50  9.3670E+002
 761.00  9.2870E+002
 761.50  9.2300E+002
 762.00  9.1764E+002
 762.50  9.0180E+002
 763.00  8.9139E+002
 763.50  8.9216E+002
 764.00  9.0163E+002
 764.50  9.1057E+002
 765.00  9.1316E+002
 765.50  9.0866E+002
 766.00  8.9515E+002
 766.50  8.9007E+002
 767.00  8.9340E+002
 767.50  8.9698E+002
 768.00  8.9781E+002
 768.50  8.9204E+002
 769.00  8.8348E+002
 769.50  8.7865E+002
 770.00  8.8413E+002
 770.50  8.9030E+002
 771.00  9.0184E+002
 771.50  9.2202E+002
 772.00  9.3312E+002
 772.50  9.4476E+002
 773.00  9.5436E+002
 773.50  9.4658E+002
 774.00  9.3797E+002
 774.50  9.3595E+002
 775.00  9.4018E+002
 775.50  9.4613E+002
 776.00  9.4742E+002
 776.50  9.4241E+002
 777.00  9.2827E+002
 777.50  9.1352E+002
 778.00  9.0946E+002
 778.50  9.1651E+002
 779.00  9.1738E+002
 779.50  9.1591E+002
 780.00  9.1361E+002
 780.50  9.0799E+002
 781.00  9.0459E+002
 781.50  9.1042E+002
 782.00  9.1821E+002
 782.50  9.1885E+002
 783.00  9.1330E+002
 783.50  9.0870E+002
 784.00  9.0932E+002
 784.50  9.0496E+002
 785.00  9.0413E+002
 785.50  9.0507E+002
 786.00  9.0089E+002
 786.50  9.1103E+002
 787.00  9.2084E+002
 787.50  9.1710E+002
 788.00  9.1158E+002
 788.50  8.9486E+002
 789.00  8.8417E+002
 789.50  8.8947E+002
 790.00  8.9870E+002
 790.50  9.1379E+002
 791.00  9.2010E+002
 791.50  9.1626E+002
 792.00  9.1108E+002
 792.50  9.0390E+002
 793.00  9.0355E+002
 793.50  9.0534E+002
 794.00  9.0991E+002
 794.50  9.2679E+002
 795.00  9.3396E+002
 795.50  9.3051E+002
 796.00  9.2578E+002
 796.50  9.1267E+002
 797.00  9.0962E+002
 797.50  9.1937E+002
 798.00  9.1923E+002
 798.50  9.1096E+002
 799.00  8.9502E+002
 799.50  8.8182E+002
 800.00  8.9367E+002
 800.50  9.0857E+002
 801.00  9.2132E+002
 801.50  9.2662E+002
 802.00  9.1525E+002
 802.50  9.0652E+002
 803.00  9.0522E+002
 803.50  9.1359E+002
 804.00  9.2581E+002
 804.50  9.3434E+002
 805.00  9.3639E+002
 805.50  9.3127E+002
 806.00  9.1930E+002
 806.50  9.0350E+002
 807.00  8.9081E+002
 807.50  8.8520E+002
 808.00  8.9055E+002
 808.50  9.0601E+002
 809.00  9.2678E+002
 809.50  9.4218E+002
 810.00  9.4034E+002
 810.50  9.2711E+002
 811.00  9.0633E+002
 811.50  8.8633E+002
 812.00  8.7376E+002
 812.50  8.7193E+002
 813.00  8.8521E+002
 813.50  8.9576E+002
 814.00  9.1095E+002
 814.50  9.2988E+002
 815.00  9.3025E+002
 815.50  9.2346E+002
 816.00  9.1113E+002
 816.50  8.9239E+002
 817.00  8.7599E+002
 817.50  8.7680E+002
 818.00  8.9443E+002
 818.50  9.0811E+002
 819.00  9.2868E+002
 819.50  9.3358E+002
 820.00  9.2935E+002
 820.50  9.3659E+002
 821.00  9.4405E+002
 821.50  9.4978E+002
 822.00  9.4870E+002
 822.50  9.3066E+002
 823.00  9.1692E+002
 823.50  9.2747E+002
 824.00  9.3888E+002
 824.50  9.4766E+002
 825.00  9.3887E+002
 825.50  9.2222E+002
 826.00  9.1714E+002
 826.50  9.2506E+002
 827.00  9.5063E+002
 827.50  9.6412E+002
 828.00  9.6422E+002
 828.50  9.5395E+002
 829.00  9.2943E+002
 829.50  9.1860E+002
 830.00  9.2479E+002
 830.50  9.3757E+002
 831.00  9.5149E+002
 831.50  9.4804E+002
 832.00  9.2631E+002
 832.50  8.9872E+002
 833.00  8.7951E+002
 833.50  8.7100E+002
 834.00  8.7869E+002
 834.50  8.8975E+002
 835.00  8.9839E+002
 835.50  9.0634E+002
 836.00  8.9627E+002
 836.50  8.9006E+002
 837.00  8.9155E+002
 837.50  8.8743E+002
 838.00  8.9409E+002
 838.50  8.9276E+002
 839.00  8.8968E+002
 839.50  8.8911E+002
 840.00  8.8140E+002
 840.50  8.8049E+002
 841.00  8.7841E+002
 841.50  8.8493E+002
 842.00  8.9054E+002
 842.50  9.0137E+002
 843.00  9.0880E+002
 843.50  9.0761E+002
 844.00  9.0813E+002
 844.50  8.9466E+002
 845.00  8.9098E+002
 845.50  9.0452E+002
 846.00  9.1382E+002
 846.50  9.1870E+002
 847.00  9.0444E+002
 847.50  8.7402E+002
 848.00  8.6869E+002
 848.50  8.8364E+002
 849.00  9.0516E+002
 849.50  9.2771E+002
 850.00  9.2832E+002
 850.50  9.1907E+002
 851.00  9.1267E+002
 851.50  9.1377E+002
 852.00  9.3034E+002
 852.50  9.3918E+002
 853.00  9.7530E+002
 853.50  1.0080E+003
 854.00  1.0004E+003
 854.50  9.8744E+002
 855.00  9.4786E+002
 855.50  9.0763E+002
 856.00  8.8793E+002
 856.50  8.8339E+002
 857.00  8.7767E+002
 857.50  8.7225E+002
 858.00  8.7565E+002
 858.50  8.6709E+002
 859.00  8.5828E+002
 859.50  8.4612E+002
 860.00  8.3417E+002
 860.50  8.4618E+002
 861.00  8.5717E+002
 861.50  8.6977E+002
 862.00  8.8131E+002
 862.50  8.7827E+002
 863.00  8.7466E+002
 863.50  8.7070E+002
 864.00  8.7446E+002
 864.50  8.8529E+002
 865.00  8.9051E+002
 865.50  9.0142E+002
 866.00  9.0440E+002
 866.50  8.9931E+002
 867.00  8.9403E+002
 867.50  8.9647E+002
 868.00  8.9714E+002
 868.50  8.9560E+002
 869.00  8.9402E+002
 869.50  8.9018E+002
 870.00  8.9324E+002
 870.50  9.0317E+002
 871.00  9.1811E+002
 871.50  9.2741E+002
 872.00  9.3395E+002
 872.50  9.2577E+002
 873.00  9.0921E+002
 873.50  9.1361E+002
 874.00  9.3716E+002
 874.50  9.4588E+002
 875.00  9.4938E+002
 875.50  9.3589E+002
 876.00  9.1031E+002
 876.50  9.0770E+002
 877.00  9.1115E+002
 877.50  8.9885E+002
 878.00  8.8989E+002
 878.50  8.8435E+002
 879.00  8.8020E+002
 879.50  8.8778E+002
 880.00  8.9866E+002
 880.50  9.1544E+002
 881.00  9.2052E+002
 881.50  9.1392E+002
 882.00  9.0181E+002
 882.50  8.8514E+002
 883.00  8.7858E+002
 883.50  8.8621E+002
 884.00  8.9527E+002
 884.50  9.1055E+002
 885.00  9.2912E+002
 885.50  9.3011E+002
 886.00  9.2096E+002
 886.50  9.1009E+002
 887.00  9.0508E+002
 887.50  9.0241E+002
 888.00  9.0263E+002
 888.50  9.0483E+002
 889.00  8.9086E+002
 889.50  8.9058E+002
 890.00  8.9525E+002
 890.50  9.0568E+002
 891.00  9.2957E+002
 891.50  9.3649E+002
 892.00  9.4220E+002
 892.50  9.4737E+002
 893.00  9.4252E+002
 893.50  9.4022E+002
 894.00  9.3060E+002
 894.50  9.0652E+002
 895.00  8.9314E+002
 895.50  8.8563E+002
 896.00  8.8637E+002
 896.50  8.9418E+002
 897.00  9.0133E+002
 897.50  9.0193E+002
 898.00  8.9449E+002
 898.50  8.9011E+002
 899.00  8.8680E+002
 899.50  8.8879E+002
 900.00  8.9739E+002
 900.50  9.0453E+002
 901.00  9.0821E+002
 901.50  9.1475E+002
 902.00  9.1932E+002
 902.50  9.2834E+002
 903.00  9.4122E+002
 903.50  9.4420E+002
 904.00  9.4396E+002
 904.50  9.3478E+002
 905.00  9.2073E+002
 905.50  9.0228E+002
 906.00  8.7865E+002
 906.50  8.5722E+002
 907.00  8.4257E+002
 907.50  8.4200E+002
 908.00  8.6112E+002
 908.50  8.7757E+002
 909.00  8.8204E+002
 909.50  8.8269E+002
 910.00  8.7328E+002
 910.50  8.7006E+002
 911.00  8.7941E+002
 911.50  8.8777E+002
 912.00  8.9913E+002
 912.50  9.0185E+002
 913.00  8.9457E+002
 913.50  8.8091E+002
 914.00  8.7728E+002
 914.50  8.8131E+002
 915.00  8.8814E+002
 915.50  9.0328E+002
 916.00  9.1863E+002
 916.50  9.3404E+002
 917.00  9.3109E+002
 917.50  9.2329E+002
 918.00  9.1096E+002
 918.50  9.8811E+002
 919.00  1.0940E+003
 919.50  1.1416E+003
 920.00  1.1521E+003
 920.50  1.0537E+003
 921.00  9.6541E+002
 921.50  9.3056E+002
 922.00  9.2176E+002
 922.50  9.2158E+002
 923.00  9.2080E+002
 923.50  9.1128E+002
 924.00  8.9226E+002
 924.50  8.8775E+002
 925.00  8.8977E+002
 925.50  8.8061E+002
 926.00  8.7388E+002
 926.50  8.6441E+002
 927.00  8.6274E+002
 927.50  8.6665E+002
 928.00  8.7104E+002
 928.50  8.8951E+002
 929.00  8.9516E+002
 929.50  8.9952E+002
 930.00  9.0200E+002
 930.50  8.9131E+002
 931.00  8.9855E+002
 931.50  9.1291E+002
 932.00  9.1976E+002
 932.50  9.2180E+002
 933.00  9.0900E+002
 933.50  8.9630E+002
 934.00  8.9734E+002
 934.50  8.9514E+002
 935.00  9.0618E+002
 935.50  9.0882E+002
 936.00  9.0460E+002
 936.50  8.9980E+002
 937.00  8.8945E+002
 937.50  8.8572E+002
 938.00  9.0117E+002
 938.50  9.3495E+002
 939.00  9.5114E+002
 939.50  9.6452E+002
 940.00  9.5522E+002
 940.50  9.4914E+002
 941.00  9.4825E+002
 941.50  9.3540E+002
 942.00  9.2360E+002
 942.50  9.1312E+002
 943.00  9.0898E+002
 943.50  9.0652E+002
 944.00  9.0423E+002
 944.50  9.0868E+002
 945.00  9.0853E+002
 945.50  8.9761E+002
 946.00  8.8719E+002
 946.50  8.7485E+002
 947.00  8.7394E+002
 947.50  8.8174E+002
 948.00  8.8736E+002
 948.50  8.8879E+002
 949.00  8.8927E+002
 949.50  8.8051E+002
 950.00  8.6577E+002
 950.50  8.6805E+002
 951.00  8.7351E+002
 951.50  8.9180E+002
 952.00  9.0759E+002
 952.50  9.0351E+002
 953.00  8.8309E+002
 953.50  8.6483E+002
 954.00  8.5989E+002
 954.50  8.8101E+002
 955.00  9.1123E+002
 955.50  9.2590E+002
 956.00  9.3008E+002
 956.50  9.2905E+002
 957.00  9.5357E+002
 957.50  9.7532E+002
 958.00  9.7430E+002
 958.50  9.4919E+002
 959.00  9.1809E+002
 959.50  9.1026E+002
 960.00  9.0924E+002
 960.50  9.1400E+002
 961.00  9.2465E+002
 961.50  9.3388E+002
 962.00  9.4484E+002
 962.50  9.4137E+002
 963.00  9.1381E+002
 963.50  8.9379E+002
 964.00  8.9658E+002
 964.50  9.1292E+002
 965.00  9.2734E+002
 965.50  9.2432E+002
 966.00  8.9411E+002
 966.50  8.7533E+002
 967.00  8.6376E+002
 967.50  8.7684E+002
 968.00  8.9250E+002
 968.50  8.9987E+002
 969.00  9.0250E+002
 969.50  8.8795E+002
 970.00  8.8707E+002
 970.50  8.9354E+002
 971.00  9.0916E+002
 971.50  9.2092E+002
 972.00  9.1680E+002
 972.50  8.9741E+002
 973.00  8.7789E+002
 973.50  8.8689E+002
 974.00  9.0856E+002
 974.50  9.3025E+002
 975.00  9.3977E+002
 975.50  9.2739E+002
 976.00  9.2047E+002
 976.50  9.1877E+002
 977.00  9.1610E+002
 977.50  9.1616E+002
 978.00  9.1736E+002
 978.50  9.3077E+002
 979.00  9.4062E+002
 979.50  9.4509E+002
 980.00  9.4103E+002
 980.50  9.3357E+002
 981.00  9.3660E+002
 981.50  9.3629E+002
 982.00  9.3203E+002
 982.50  9.1963E+002
 983.00  9.1249E+002
 983.50  9.0459E+002
 984.00  8.9393E+002
 984.50  8.7986E+002
 985.00  8.7928E+002
 985.50  8.8526E+002
 986.00  9.0047E+002
 986.50  9.0927E+002
 987.00  9.1814E+002
 987.50  9.3439E+002
 988.00  9.6312E+002
 988.50  9.6023E+002
 989.00  9.4303E+002
 989.50  9.1216E+002
 990.00  9.1682E+002
 990.50  9.4349E+002
 991.00  9.6052E+002
 991.50  9.5525E+002
 992.00  9.2264E+002
 992.50  9.0790E+002
 993.00  9.0452E+002
 993.50  9.0576E+002
 994.00  9.1621E+002
 994.50  9.1784E+002
 995.00  9.2210E+002
 995.50  9.1284E+002
 996.00  9.0644E+002
 996.50  8.9518E+002
 997.00  8.9328E+002
 997.50  9.0228E+002
 998.00  9.2560E+002
 998.50  9.5856E+002
 999.00  9.6994E+002
 999.50  9.6335E+002
1000.00  9.5416E+002
1000.50  9.5699E+002
1001.00  9.5595E+002
1001.50  9.4845E+002
1002.00  9.2025E+002
1002.50  9.0406E+002
1003.00  9.0150E+002
1003.50  9.1228E+002
1004.00  9.2187E+002
1004.50  9.2296E+002
1005.00  9.2547E+002
1005.50  9.2846E+002
1006.00  9.3672E+002
1006.50  9.4862E+002
1007.00  9.6201E+002
1007.50  9.6121E+002
1008.00  9.5238E+002
1008.50  9.3451E+002
1009.00  9.2704E+002
1009.50  9.3445E+002
1010.00  9.4248E+002
1010.50  9.3398E+002
1011.00  9.1490E+002
1011.50  9.0232E+002
1012.00  8.9814E+002
1012.50  9.0221E+002
1013.00  8.8512E+002
1013.50  8.6559E+002
1014.00  8.5973E+002
1014.50  8.6332E+002
1015.00  8.8195E+002
1015.50  8.8410E+002
1016.00  8.9235E+002
1016.50  9.0341E+002
1017.00  9.0397E+002
1017.50  9.1193E+002
1018.00  9.1191E+002
1018.50  9.1119E+002
1019.00  9.0511E+002
1019.50  8.9344E+002
1020.00  8.9803E+002
1020.50  9.1281E+002
1021.00  9.2473E+002
1021.50  9.2401E+002
1022.00  9.3310E+002
1022.50  9.4630E+002
1023.00  9.4805E+002
1023.50  9.3072E+002
1024.00  9.0372E+002
1024.50  8.8357E+002
1025.00  8.8111E+002
1025.50  8.9644E+002
1026.00  9.1958E+002
1026.50  9.4394E+002
1027.00  9.6124E+002
1027.50  9.4212E+002
1028.00  9.1592E+002
1028.50  9.0207E+002
1029.00  9.0022E+002
1029.50  9.2881E+002
1030.00  9.2779E+002
1030.50  9.2544E+002
1031.00  9.0302E+002
1031.50  8.8224E+002
1032.00  8.7732E+002
1032.50  8.7440E+002
1033.00  8.8164E+002
1033.50  9.0121E+002
1034.00  9.0683E+002
1034.50  9.1252E+002
1035.00  9.0609E+002
1035.50  9.0071E+002
1036.00  8.9951E+002
1036.50  9.0890E+002
1037.00  9.2133E+002
1037.50  9.2628E+002
1038.00  9.1562E+002
1038.50  9.0458E+002
1039.00  8.9944E+002
1039.50  9.0677E+002
1040.00  9.1769E+002
1040.50  9.1939E+002
1041.00  9.1472E+002
1041.50  9.0793E+002
1042.00  9.0480E+002
1042.50  9.2474E+002
1043.00  9.4330E+002
1043.50  9.5753E+002
1044.00  9.5980E+002
1044.50  9.4838E+002
1045.00  9.2967E+002
1045.50  9.1167E+002
1046.00  8.8965E+002
1046.50  8.8770E+002
1047.00  8.9160E+002
1047.50  8.9657E+002
1048.00  8.9901E+002
1048.50  9.1032E+002
1049.00  9.1454E+002
1049.50  9.2213E+002
1050.00  9.0759E+002
1050.50  8.8097E+002
1051.00  8.6737E+002
1051.50  8.5773E+002
1052.00  8.6387E+002
1052.50  8.6481E+002
1053.00  8.7209E+002
1053.50  8.9622E+002
1054.00  9.1428E+002
1054.50  9.2463E+002
1055.00  9.2163E+002
1055.50  9.1709E+002
1056.00  9.1763E+002
1056.50  9.0596E+002
1057.00  8.8350E+002
1057.50  8.8714E+002
1058.00  9.0201E+002
1058.50  9.1527E+002
1059.00  9.0930E+002
1059.50  8.9466E+002
1060.00  8.9783E+002
1060.50  9.0354E+002
1061.00  9.2267E+002
1061.50  9.2848E+002
1062.00  9.4306E+002
1062.50  9.5714E+002
1063.00  9.5404E+002
1063.50  9.4538E+002
1064.00  9.1034E+002
1064.50  8.8361E+002
1065.00  8.8286E+002
1065.50  8.9250E+002
1066.00  9.0788E+002
1066.50  9.0253E+002
1067.00  8.8316E+002
1067.50  8.6192E+002
1068.00  8.6094E+002
1068.50  8.6700E+002
1069.00  8.7831E+002
1069.50  8.8209E+002
1070.00  8.8166E+002
1070.50  8.7483E+002
1071.00  8.7829E+002
1071.50  8.7459E+002
1072.00  8.7135E+002
1072.50  6.9645E+002
