" File: Users\LabUser\Documents\MonochromatorCal
"  SCOPE->  Wave:693.48nm  Pix:1050  Val:837.000  Time: 10ms  Avg:1  Sm:1  Sg:0  Tc:off  SNAP  Xt:3  Ch:1  Xtrig  
 191.00  8.3341E+002
 191.50  8.4867E+002
 192.00  8.4401E+002
 192.50  8.3935E+002
 193.00  8.5281E+002
 193.50  8.8046E+002
 194.00  8.8700E+002
 194.50  8.6452E+002
 195.00  8.4646E+002
 195.50  8.4992E+002
 196.00  8.5885E+002
 196.50  8.6297E+002
 197.00  8.6830E+002
 197.50  8.7773E+002
 198.00  8.8667E+002
 198.50  8.6546E+002
 199.00  8.4338E+002
 199.50  8.6300E+002
 200.00  8.7048E+002
 200.50  8.4316E+002
 201.00  8.4061E+002
 201.50  8.6025E+002
 202.00  8.6443E+002
 202.50  8.7396E+002
 203.00  8.8397E+002
 203.50  8.8525E+002
 204.00  8.8204E+002
 204.50  8.7369E+002
 205.00  8.5698E+002
 205.50  8.3979E+002
 206.00  8.2984E+002
 206.50  8.2328E+002
 207.00  8.1674E+002
 207.50  8.1055E+002
 208.00  8.0235E+002
 208.50  7.9955E+002
 209.00  8.0505E+002
 209.50  8.1505E+002
 210.00  8.2899E+002
 210.50  8.4214E+002
 211.00  8.4753E+002
 211.50  8.4539E+002
 212.00  8.4120E+002
 212.50  8.3555E+002
 213.00  8.2629E+002
 213.50  8.1743E+002
 214.00  8.1244E+002
 214.50  8.1281E+002
 215.00  8.1491E+002
 215.50  8.2337E+002
 216.00  8.3746E+002
 216.50  8.5104E+002
 217.00  8.5983E+002
 217.50  8.6428E+002
 218.00  8.6520E+002
 218.50  8.6174E+002
 219.00  8.5852E+002
 219.50  8.5383E+002
 220.00  8.4399E+002
 220.50  8.3554E+002
 221.00  8.3470E+002
 221.50  8.3443E+002
 222.00  8.3097E+002
 222.50  8.3391E+002
 223.00  8.4209E+002
 223.50  8.4285E+002
 224.00  8.4362E+002
 224.50  8.5155E+002
 225.00  8.5716E+002
 225.50  8.5747E+002
 226.00  8.5569E+002
 226.50  8.5189E+002
 227.00  8.4569E+002
 227.50  8.3882E+002
 228.00  8.3346E+002
 228.50  8.3001E+002
 229.00  8.2842E+002
 229.50  8.2774E+002
 230.00  8.2627E+002
 230.50  8.2530E+002
 231.00  8.2642E+002
 231.50  8.2453E+002
 232.00  8.1728E+002
 232.50  8.0995E+002
 233.00  8.0921E+002
 233.50  8.1167E+002
 234.00  8.1736E+002
 234.50  8.2879E+002
 235.00  8.4186E+002
 235.50  8.4893E+002
 236.00  8.5218E+002
 236.50  8.5376E+002
 237.00  8.5362E+002
 237.50  8.5141E+002
 238.00  8.4876E+002
 238.50  8.4811E+002
 239.00  8.4902E+002
 239.50  8.4641E+002
 240.00  8.3787E+002
 240.50  8.2990E+002
 241.00  8.1978E+002
 241.50  8.0623E+002
 242.00  7.9688E+002
 242.50  7.9498E+002
 243.00  7.9327E+002
 243.50  7.9284E+002
 244.00  7.9589E+002
 244.50  7.9543E+002
 245.00  7.9672E+002
 245.50  8.0387E+002
 246.00  8.1783E+002
 246.50  8.2788E+002
 247.00  8.3386E+002
 247.50  8.4245E+002
 248.00  8.5210E+002
 248.50  8.5618E+002
 249.00  8.5626E+002
 249.50  8.5702E+002
 250.00  8.5360E+002
 250.50  8.4486E+002
 251.00  8.3897E+002
 251.50  8.4016E+002
 252.00  8.4316E+002
 252.50  8.4972E+002
 253.00  8.5315E+002
 253.50  8.4963E+002
 254.00  8.4833E+002
 254.50  8.5074E+002
 255.00  8.5200E+002
 255.50  8.5205E+002
 256.00  8.5327E+002
 256.50  8.4878E+002
 257.00  8.3820E+002
 257.50  8.2727E+002
 258.00  8.2039E+002
 258.50  8.1887E+002
 259.00  8.2264E+002
 259.50  8.3206E+002
 260.00  8.4495E+002
 260.50  8.5567E+002
 261.00  8.5965E+002
 261.50  8.5090E+002
 262.00  8.3362E+002
 262.50  8.1435E+002
 263.00  8.0218E+002
 263.50  7.9540E+002
 264.00  8.0037E+002
 264.50  8.1811E+002
 265.00  8.3355E+002
 265.50  8.3968E+002
 266.00  8.4221E+002
 266.50  8.4088E+002
 267.00  8.3552E+002
 267.50  8.3017E+002
 268.00  8.2873E+002
 268.50  8.3089E+002
 269.00  8.3346E+002
 269.50  8.3419E+002
 270.00  8.3508E+002
 270.50  8.3476E+002
 271.00  8.2989E+002
 271.50  8.2400E+002
 272.00  8.2114E+002
 272.50  8.1812E+002
 273.00  8.1335E+002
 273.50  8.1565E+002
 274.00  8.2108E+002
 274.50  8.2432E+002
 275.00  8.2407E+002
 275.50  8.2650E+002
 276.00  8.2087E+002
 276.50  8.1106E+002
 277.00  8.0781E+002
 277.50  8.0886E+002
 278.00  8.1055E+002
 278.50  8.1277E+002
 279.00  8.1790E+002
 279.50  8.2532E+002
 280.00  8.2967E+002
 280.50  8.2979E+002
 281.00  8.3029E+002
 281.50  8.3116E+002
 282.00  8.2714E+002
 282.50  8.1877E+002
 283.00  8.0952E+002
 283.50  8.0144E+002
 284.00  7.9777E+002
 284.50  7.9899E+002
 285.00  8.0349E+002
 285.50  8.1419E+002
 286.00  8.2963E+002
 286.50  8.4104E+002
 287.00  8.4622E+002
 287.50  8.5256E+002
 288.00  8.6055E+002
 288.50  8.6348E+002
 289.00  8.6997E+002
 289.50  8.7517E+002
 290.00  8.7420E+002
 290.50  8.6532E+002
 291.00  8.5661E+002
 291.50  8.4881E+002
 292.00  8.4679E+002
 292.50  8.5126E+002
 293.00  8.6084E+002
 293.50  8.7237E+002
 294.00  8.7755E+002
 294.50  8.7277E+002
 295.00  8.6194E+002
 295.50  8.4821E+002
 296.00  8.3210E+002
 296.50  8.2047E+002
 297.00  8.1624E+002
 297.50  8.1354E+002
 298.00  8.1044E+002
 298.50  8.1301E+002
 299.00  8.1980E+002
 299.50  8.2092E+002
 300.00  8.1691E+002
 300.50  8.1666E+002
 301.00  8.1867E+002
 301.50  8.1434E+002
 302.00  8.1095E+002
 302.50  8.1050E+002
 303.00  8.0884E+002
 303.50  8.0675E+002
 304.00  8.0870E+002
 304.50  8.0950E+002
 305.00  8.1052E+002
 305.50  8.1225E+002
 306.00  8.1765E+002
 306.50  8.2037E+002
 307.00  8.1982E+002
 307.50  8.2391E+002
 308.00  8.2529E+002
 308.50  8.1801E+002
 309.00  8.1529E+002
 309.50  8.1979E+002
 310.00  8.2480E+002
 310.50  8.2983E+002
 311.00  8.3205E+002
 311.50  8.2648E+002
 312.00  8.1695E+002
 312.50  8.0708E+002
 313.00  8.0083E+002
 313.50  8.0231E+002
 314.00  8.0993E+002
 314.50  8.1952E+002
 315.00  8.2851E+002
 315.50  8.3533E+002
 316.00  8.3680E+002
 316.50  8.3180E+002
 317.00  8.2381E+002
 317.50  8.2006E+002
 318.00  8.2436E+002
 318.50  8.3076E+002
 319.00  8.3446E+002
 319.50  8.3882E+002
 320.00  8.4622E+002
 320.50  8.4874E+002
 321.00  8.4342E+002
 321.50  8.3835E+002
 322.00  8.3665E+002
 322.50  8.3299E+002
 323.00  8.3125E+002
 323.50  8.3012E+002
 324.00  8.2774E+002
 324.50  8.2924E+002
 325.00  8.3402E+002
 325.50  8.3454E+002
 326.00  8.3920E+002
 326.50  8.4917E+002
 327.00  8.5360E+002
 327.50  8.5380E+002
 328.00  8.4910E+002
 328.50  8.4401E+002
 329.00  8.3929E+002
 329.50  8.3679E+002
 330.00  8.3425E+002
 330.50  8.3471E+002
 331.00  8.3116E+002
 331.50  8.2738E+002
 332.00  8.3062E+002
 332.50  8.3319E+002
 333.00  8.3328E+002
 333.50  8.4097E+002
 334.00  8.4548E+002
 334.50  8.3907E+002
 335.00  8.3312E+002
 335.50  8.3052E+002
 336.00  8.2141E+002
 336.50  8.1503E+002
 337.00  8.1644E+002
 337.50  8.1522E+002
 338.00  8.1342E+002
 338.50  8.2020E+002
 339.00  8.2999E+002
 339.50  8.3605E+002
 340.00  8.4030E+002
 340.50  8.4142E+002
 341.00  8.3789E+002
 341.50  8.3424E+002
 342.00  8.3617E+002
 342.50  8.4228E+002
 343.00  8.4782E+002
 343.50  8.5246E+002
 344.00  8.5518E+002
 344.50  8.5256E+002
 345.00  8.4555E+002
 345.50  8.3966E+002
 346.00  8.3683E+002
 346.50  8.3532E+002
 347.00  8.3627E+002
 347.50  8.4059E+002
 348.00  8.4507E+002
 348.50  8.4375E+002
 349.00  8.4000E+002
 349.50  8.3735E+002
 350.00  8.3581E+002
 350.50  8.3727E+002
 351.00  8.4463E+002
 351.50  8.5369E+002
 352.00  8.5767E+002
 352.50  8.5607E+002
 353.00  8.5214E+002
 353.50  8.4592E+002
 354.00  8.4459E+002
 354.50  8.4778E+002
 355.00  8.4959E+002
 355.50  8.4859E+002
 356.00  8.4662E+002
 356.50  8.4075E+002
 357.00  8.3472E+002
 357.50  8.2731E+002
 358.00  8.2380E+002
 358.50  8.2133E+002
 359.00  8.1179E+002
 359.50  8.0269E+002
 360.00  8.0388E+002
 360.50  8.0838E+002
 361.00  8.0999E+002
 361.50  8.1294E+002
 362.00  8.1382E+002
 362.50  8.1244E+002
 363.00  8.1337E+002
 363.50  8.1930E+002
 364.00  8.2651E+002
 364.50  8.2969E+002
 365.00  8.2783E+002
 365.50  8.2071E+002
 366.00  8.1703E+002
 366.50  8.1781E+002
 367.00  8.2491E+002
 367.50  8.4051E+002
 368.00  8.5658E+002
 368.50  8.6389E+002
 369.00  8.6982E+002
 369.50  8.6996E+002
 370.00  8.6391E+002
 370.50  8.5654E+002
 371.00  8.5475E+002
 371.50  8.5337E+002
 372.00  8.5231E+002
 372.50  8.4895E+002
 373.00  8.3939E+002
 373.50  8.3070E+002
 374.00  8.2628E+002
 374.50  8.2985E+002
 375.00  8.3256E+002
 375.50  8.4078E+002
 376.00  8.5063E+002
 376.50  8.5196E+002
 377.00  8.4979E+002
 377.50  8.4891E+002
 378.00  8.4370E+002
 378.50  8.3817E+002
 379.00  8.3670E+002
 379.50  8.3160E+002
 380.00  8.3183E+002
 380.50  8.3330E+002
 381.00  8.3808E+002
 381.50  8.4965E+002
 382.00  8.5924E+002
 382.50  8.6106E+002
 383.00  8.6970E+002
 383.50  8.7228E+002
 384.00  8.6291E+002
 384.50  8.5526E+002
 385.00  8.5177E+002
 385.50  8.4644E+002
 386.00  8.4345E+002
 386.50  8.4828E+002
 387.00  8.4948E+002
 387.50  8.4733E+002
 388.00  8.4278E+002
 388.50  8.3664E+002
 389.00  8.3489E+002
 389.50  8.3884E+002
 390.00  8.4373E+002
 390.50  8.4269E+002
 391.00  8.3855E+002
 391.50  8.2714E+002
 392.00  8.1117E+002
 392.50  7.9901E+002
 393.00  7.9639E+002
 393.50  7.9933E+002
 394.00  8.0131E+002
 394.50  8.1024E+002
 395.00  8.2241E+002
 395.50  8.2751E+002
 396.00  8.2341E+002
 396.50  8.2185E+002
 397.00  8.2432E+002
 397.50  8.2682E+002
 398.00  8.3282E+002
 398.50  8.3973E+002
 399.00  8.4010E+002
 399.50  8.3595E+002
 400.00  8.3155E+002
 400.50  8.2539E+002
 401.00  8.2247E+002
 401.50  8.2969E+002
 402.00  8.3813E+002
 402.50  8.3962E+002
 403.00  8.4343E+002
 403.50  8.4789E+002
 404.00  8.4188E+002
 404.50  8.3255E+002
 405.00  8.3019E+002
 405.50  8.2655E+002
 406.00  8.2164E+002
 406.50  8.2369E+002
 407.00  8.2828E+002
 407.50  8.2744E+002
 408.00  8.2575E+002
 408.50  8.2489E+002
 409.00  8.2070E+002
 409.50  8.1557E+002
 410.00  8.1508E+002
 410.50  8.1444E+002
 411.00  8.1310E+002
 411.50  8.1158E+002
 412.00  8.0946E+002
 412.50  8.1181E+002
 413.00  8.1999E+002
 413.50  8.3254E+002
 414.00  8.4716E+002
 414.50  8.5487E+002
 415.00  8.5221E+002
 415.50  8.4566E+002
 416.00  8.3946E+002
 416.50  8.3766E+002
 417.00  8.3956E+002
 417.50  8.4179E+002
 418.00  8.4354E+002
 418.50  8.4065E+002
 419.00  8.3493E+002
 419.50  8.3447E+002
 420.00  8.3527E+002
 420.50  8.3556E+002
 421.00  8.3658E+002
 421.50  8.3379E+002
 422.00  8.2295E+002
 422.50  8.1072E+002
 423.00  7.9885E+002
 423.50  7.8885E+002
 424.00  7.8763E+002
 424.50  7.9293E+002
 425.00  8.0038E+002
 425.50  8.0754E+002
 426.00  8.1526E+002
 426.50  8.2044E+002
 427.00  8.2179E+002
 427.50  8.2593E+002
 428.00  8.3584E+002
 428.50  8.4473E+002
 429.00  8.5299E+002
 429.50  8.6091E+002
 430.00  8.6221E+002
 430.50  8.5305E+002
 431.00  8.3896E+002
 431.50  8.2875E+002
 432.00  8.2429E+002
 432.50  8.2204E+002
 433.00  8.2075E+002
 433.50  8.1801E+002
 434.00  8.1328E+002
 434.50  8.1265E+002
 435.00  8.1853E+002
 435.50  8.2673E+002
 436.00  8.3343E+002
 436.50  8.3522E+002
 437.00  8.3213E+002
 437.50  8.2989E+002
 438.00  8.3241E+002
 438.50  8.4199E+002
 439.00  8.5747E+002
 439.50  8.6909E+002
 440.00  8.7227E+002
 440.50  8.6737E+002
 441.00  8.5664E+002
 441.50  8.4783E+002
 442.00  8.4350E+002
 442.50  8.4070E+002
 443.00  8.3987E+002
 443.50  8.3721E+002
 444.00  8.3288E+002
 444.50  8.3258E+002
 445.00  8.3450E+002
 445.50  8.3656E+002
 446.00  8.3596E+002
 446.50  8.2999E+002
 447.00  8.1822E+002
 447.50  8.0371E+002
 448.00  7.9758E+002
 448.50  7.9970E+002
 449.00  7.9805E+002
 449.50  8.0521E+002
 450.00  8.1505E+002
 450.50  8.1467E+002
 451.00  8.1356E+002
 451.50  8.2134E+002
 452.00  8.1758E+002
 452.50  8.1044E+002
 453.00  8.1185E+002
 453.50  8.0641E+002
 454.00  7.9487E+002
 454.50  7.9304E+002
 455.00  7.9560E+002
 455.50  8.0006E+002
 456.00  8.0948E+002
 456.50  8.1541E+002
 457.00  8.1626E+002
 457.50  8.1694E+002
 458.00  8.1348E+002
 458.50  8.0512E+002
 459.00  8.0323E+002
 459.50  8.0830E+002
 460.00  8.1248E+002
 460.50  8.2592E+002
 461.00  8.4830E+002
 461.50  8.6367E+002
 462.00  8.6704E+002
 462.50  8.7082E+002
 463.00  8.6997E+002
 463.50  8.6100E+002
 464.00  8.5032E+002
 464.50  8.5256E+002
 465.00  8.5839E+002
 465.50  8.5972E+002
 466.00  8.6298E+002
 466.50  8.6815E+002
 467.00  8.6500E+002
 467.50  8.5497E+002
 468.00  8.4437E+002
 468.50  8.3796E+002
 469.00  8.3633E+002
 469.50  8.3322E+002
 470.00  8.2824E+002
 470.50  8.2788E+002
 471.00  8.2449E+002
 471.50  8.1638E+002
 472.00  8.1177E+002
 472.50  8.1015E+002
 473.00  8.0927E+002
 473.50  8.1092E+002
 474.00  8.1980E+002
 474.50  8.3053E+002
 475.00  8.3865E+002
 475.50  8.4400E+002
 476.00  8.4622E+002
 476.50  8.4179E+002
 477.00  8.3437E+002
 477.50  8.2841E+002
 478.00  8.2030E+002
 478.50  8.0979E+002
 479.00  8.0543E+002
 479.50  8.0486E+002
 480.00  8.0028E+002
 480.50  7.9528E+002
 481.00  7.9331E+002
 481.50  7.8960E+002
 482.00  7.8822E+002
 482.50  7.9840E+002
 483.00  8.2144E+002
 483.50  8.4286E+002
 484.00  8.5697E+002
 484.50  8.6976E+002
 485.00  8.7608E+002
 485.50  8.6448E+002
 486.00  8.5182E+002
 486.50  8.4606E+002
 487.00  8.3708E+002
 487.50  8.2682E+002
 488.00  8.2908E+002
 488.50  8.3433E+002
 489.00  8.3905E+002
 489.50  8.4777E+002
 490.00  8.5718E+002
 490.50  8.6132E+002
 491.00  8.6598E+002
 491.50  8.6917E+002
 492.00  8.6795E+002
 492.50  8.6549E+002
 493.00  8.6389E+002
 493.50  8.6587E+002
 494.00  8.7020E+002
 494.50  8.6952E+002
 495.00  8.6882E+002
 495.50  8.6812E+002
 496.00  8.6298E+002
 496.50  8.5448E+002
 497.00  8.5234E+002
 497.50  8.5305E+002
 498.00  8.5342E+002
 498.50  8.5661E+002
 499.00  8.6335E+002
 499.50  8.6342E+002
 500.00  8.5574E+002
 500.50  8.4253E+002
 501.00  8.2762E+002
 501.50  8.1620E+002
 502.00  8.0843E+002
 502.50  8.0260E+002
 503.00  8.0107E+002
 503.50  7.9942E+002
 504.00  7.9845E+002
 504.50  8.0078E+002
 505.00  8.0471E+002
 505.50  8.0688E+002
 506.00  8.0818E+002
 506.50  8.1296E+002
 507.00  8.2341E+002
 507.50  8.3868E+002
 508.00  8.5120E+002
 508.50  8.5812E+002
 509.00  8.5452E+002
 509.50  8.4056E+002
 510.00  8.2105E+002
 510.50  8.0530E+002
 511.00  7.9961E+002
 511.50  8.0463E+002
 512.00  8.1602E+002
 512.50  8.2628E+002
 513.00  8.2995E+002
 513.50  8.2944E+002
 514.00  8.2011E+002
 514.50  8.0617E+002
 515.00  8.0041E+002
 515.50  8.0509E+002
 516.00  8.1839E+002
 516.50  8.3386E+002
 517.00  8.4619E+002
 517.50  8.5210E+002
 518.00  8.4932E+002
 518.50  8.4302E+002
 519.00  8.4164E+002
 519.50  8.4575E+002
 520.00  8.5277E+002
 520.50  8.6004E+002
 521.00  8.6492E+002
 521.50  8.6750E+002
 522.00  8.6443E+002
 522.50  8.5548E+002
 523.00  8.4813E+002
 523.50  8.4038E+002
 524.00  8.4146E+002
 524.50  8.5482E+002
 525.00  8.6964E+002
 525.50  8.8175E+002
 526.00  8.8691E+002
 526.50  8.7946E+002
 527.00  8.6511E+002
 527.50  8.4538E+002
 528.00  8.3097E+002
 528.50  8.2669E+002
 529.00  8.2211E+002
 529.50  8.1575E+002
 530.00  8.1988E+002
 530.50  8.2679E+002
 531.00  8.3176E+002
 531.50  8.3854E+002
 532.00  8.4333E+002
 532.50  8.4368E+002
 533.00  8.4118E+002
 533.50  8.3874E+002
 534.00  8.4188E+002
 534.50  8.4965E+002
 535.00  8.5524E+002
 535.50  8.5561E+002
 536.00  8.4979E+002
 536.50  8.3855E+002
 537.00  8.2170E+002
 537.50  8.0601E+002
 538.00  7.9972E+002
 538.50  8.0207E+002
 539.00  8.0905E+002
 539.50  8.1806E+002
 540.00  8.2919E+002
 540.50  8.3718E+002
 541.00  8.3790E+002
 541.50  8.3595E+002
 542.00  8.3254E+002
 542.50  8.2733E+002
 543.00  8.3012E+002
 543.50  8.4097E+002
 544.00  8.4832E+002
 544.50  8.4902E+002
 545.00  8.4223E+002
 545.50  8.3185E+002
 546.00  8.2529E+002
 546.50  8.3296E+002
 547.00  8.5226E+002
 547.50  8.7202E+002
 548.00  8.8393E+002
 548.50  8.8149E+002
 549.00  8.6838E+002
 549.50  8.5354E+002
 550.00  8.4406E+002
 550.50  8.4077E+002
 551.00  8.4283E+002
 551.50  8.4484E+002
 552.00  8.4622E+002
 552.50  8.4847E+002
 553.00  8.4919E+002
 553.50  8.4318E+002
 554.00  8.3600E+002
 554.50  8.2663E+002
 555.00  8.1721E+002
 555.50  8.1609E+002
 556.00  8.2572E+002
 556.50  8.3094E+002
 557.00  8.3196E+002
 557.50  8.3320E+002
 558.00  8.3099E+002
 558.50  8.2407E+002
 559.00  8.1763E+002
 559.50  8.0936E+002
 560.00  8.0262E+002
 560.50  8.0526E+002
 561.00  8.1468E+002
 561.50  8.3297E+002
 562.00  8.5374E+002
 562.50  8.5779E+002
 563.00  8.5062E+002
 563.50  8.4341E+002
 564.00  8.3324E+002
 564.50  8.2419E+002
 565.00  8.2071E+002
 565.50  8.1264E+002
 566.00  8.0330E+002
 566.50  7.9934E+002
 567.00  7.9824E+002
 567.50  8.0868E+002
 568.00  8.2339E+002
 568.50  8.2156E+002
 569.00  8.2099E+002
 569.50  8.2137E+002
 570.00  8.1558E+002
 570.50  8.2046E+002
 571.00  8.3651E+002
 571.50  8.4341E+002
 572.00  8.4113E+002
 572.50  8.4509E+002
 573.00  8.4616E+002
 573.50  8.3735E+002
 574.00  8.3900E+002
 574.50  8.4834E+002
 575.00  8.5224E+002
 575.50  8.5355E+002
 576.00  8.5681E+002
 576.50  8.5626E+002
 577.00  8.4931E+002
 577.50  8.4603E+002
 578.00  8.4675E+002
 578.50  8.4567E+002
 579.00  8.4268E+002
 579.50  8.4329E+002
 580.00  8.4257E+002
 580.50  8.4015E+002
 581.00  8.4257E+002
 581.50  8.4897E+002
 582.00  8.4606E+002
 582.50  8.4013E+002
 583.00  8.3866E+002
 583.50  8.3385E+002
 584.00  8.3137E+002
 584.50  8.3744E+002
 585.00  8.3653E+002
 585.50  8.3539E+002
 586.00  8.3743E+002
 586.50  8.3313E+002
 587.00  8.2489E+002
 587.50  8.1943E+002
 588.00  8.1443E+002
 588.50  8.0684E+002
 589.00  8.0995E+002
 589.50  8.2053E+002
 590.00  8.1907E+002
 590.50  8.1152E+002
 591.00  8.0385E+002
 591.50  7.9047E+002
 592.00  7.8040E+002
 592.50  7.7840E+002
 593.00  7.8431E+002
 593.50  7.9647E+002
 594.00  8.1237E+002
 594.50  8.2965E+002
 595.00  8.4314E+002
 595.50  8.5048E+002
 596.00  8.5604E+002
 596.50  8.5366E+002
 597.00  8.4660E+002
 597.50  8.4067E+002
 598.00  8.2829E+002
 598.50  8.1679E+002
 599.00  8.1099E+002
 599.50  8.0091E+002
 600.00  7.9612E+002
 600.50  8.0312E+002
 601.00  8.1179E+002
 601.50  8.1678E+002
 602.00  8.2165E+002
 602.50  8.2334E+002
 603.00  8.2092E+002
 603.50  8.2433E+002
 604.00  8.3691E+002
 604.50  8.4572E+002
 605.00  8.5403E+002
 605.50  8.6035E+002
 606.00  8.6800E+002
 606.50  8.7631E+002
 607.00  8.7529E+002
 607.50  8.7015E+002
 608.00  8.6561E+002
 608.50  8.6127E+002
 609.00  8.6549E+002
 609.50  8.6995E+002
 610.00  8.6733E+002
 610.50  8.5701E+002
 611.00  8.4121E+002
 611.50  8.2864E+002
 612.00  8.2994E+002
 612.50  8.3683E+002
 613.00  8.4389E+002
 613.50  8.5057E+002
 614.00  8.5440E+002
 614.50  8.4921E+002
 615.00  8.3903E+002
 615.50  8.2949E+002
 616.00  8.2057E+002
 616.50  8.1505E+002
 617.00  8.2146E+002
 617.50  8.2549E+002
 618.00  8.2308E+002
 618.50  8.1742E+002
 619.00  8.0566E+002
 619.50  7.9699E+002
 620.00  7.9545E+002
 620.50  7.9453E+002
 621.00  7.9735E+002
 621.50  8.0387E+002
 622.00  8.1300E+002
 622.50  8.2871E+002
 623.00  8.3884E+002
 623.50  8.4103E+002
 624.00  8.3995E+002
 624.50  8.2902E+002
 625.00  8.1358E+002
 625.50  8.1021E+002
 626.00  8.1955E+002
 626.50  8.2811E+002
 627.00  8.3935E+002
 627.50  8.5823E+002
 628.00  8.7194E+002
 628.50  8.7650E+002
 629.00  8.8129E+002
 629.50  8.8056E+002
 630.00  8.7800E+002
 630.50  8.7769E+002
 631.00  8.7588E+002
 631.50  8.7410E+002
 632.00  8.6878E+002
 632.50  8.5934E+002
 633.00  8.5808E+002
 633.50  8.6599E+002
 634.00  8.7257E+002
 634.50  8.7909E+002
 635.00  8.8039E+002
 635.50  8.7122E+002
 636.00  8.6128E+002
 636.50  8.5775E+002
 637.00  8.5110E+002
 637.50  8.4318E+002
 638.00  8.3275E+002
 638.50  8.1817E+002
 639.00  8.0437E+002
 639.50  7.9534E+002
 640.00  7.9081E+002
 640.50  7.9041E+002
 641.00  7.8809E+002
 641.50  7.8600E+002
 642.00  7.8611E+002
 642.50  7.8504E+002
 643.00  7.8418E+002
 643.50  7.8738E+002
 644.00  7.9437E+002
 644.50  8.0594E+002
 645.00  8.1641E+002
 645.50  8.1745E+002
 646.00  8.1547E+002
 646.50  8.1732E+002
 647.00  8.1953E+002
 647.50  8.2335E+002
 648.00  8.3017E+002
 648.50  8.3063E+002
 649.00  8.2724E+002
 649.50  8.2689E+002
 650.00  8.2844E+002
 650.50  8.2469E+002
 651.00  8.1658E+002
 651.50  8.0719E+002
 652.00  8.0079E+002
 652.50  7.9831E+002
 653.00  8.0371E+002
 653.50  8.0784E+002
 654.00  8.0694E+002
 654.50  8.1150E+002
 655.00  8.1540E+002
 655.50  8.2242E+002
 656.00  8.3929E+002
 656.50  8.5035E+002
 657.00  8.5778E+002
 657.50  8.5760E+002
 658.00  8.4665E+002
 658.50  8.3403E+002
 659.00  8.2820E+002
 659.50  8.3661E+002
 660.00  8.4376E+002
 660.50  8.4782E+002
 661.00  8.4989E+002
 661.50  8.4626E+002
 662.00  8.4347E+002
 662.50  8.4403E+002
 663.00  8.4289E+002
 663.50  8.3790E+002
 664.00  8.2996E+002
 664.50  8.2124E+002
 665.00  8.2174E+002
 665.50  8.3038E+002
 666.00  8.3148E+002
 666.50  8.3130E+002
 667.00  8.2885E+002
 667.50  8.1995E+002
 668.00  8.1578E+002
 668.50  8.1093E+002
 669.00  8.0487E+002
 669.50  7.9691E+002
 670.00  7.8627E+002
 670.50  7.8022E+002
 671.00  7.8045E+002
 671.50  7.8670E+002
 672.00  7.9341E+002
 672.50  8.0700E+002
 673.00  8.2031E+002
 673.50  8.3091E+002
 674.00  8.3721E+002
 674.50  8.3744E+002
 675.00  8.4026E+002
 675.50  8.4589E+002
 676.00  8.4575E+002
 676.50  8.4606E+002
 677.00  8.4712E+002
 677.50  8.5188E+002
 678.00  8.5598E+002
 678.50  8.5942E+002
 679.00  8.6033E+002
 679.50  8.5480E+002
 680.00  8.5164E+002
 680.50  8.4944E+002
 681.00  8.3983E+002
 681.50  8.3262E+002
 682.00  8.3117E+002
 682.50  8.3774E+002
 683.00  8.4947E+002
 683.50  8.6374E+002
 684.00  8.6796E+002
 684.50  8.6269E+002
 685.00  8.5590E+002
 685.50  8.5250E+002
 686.00  8.5254E+002
 686.50  8.5127E+002
 687.00  8.4942E+002
 687.50  8.4701E+002
 688.00  8.3908E+002
 688.50  8.3457E+002
 689.00  8.3586E+002
 689.50  8.3113E+002
 690.00  8.2381E+002
 690.50  8.1957E+002
 691.00  8.0644E+002
 691.50  7.9990E+002
 692.00  8.0719E+002
 692.50  8.1501E+002
 693.00  8.2694E+002
 693.50  8.3726E+002
 694.00  8.4342E+002
 694.50  8.4793E+002
 695.00  8.5036E+002
 695.50  8.5607E+002
 696.00  8.5349E+002
 696.50  8.4376E+002
 697.00  8.4064E+002
 697.50  8.3320E+002
 698.00  8.3113E+002
 698.50  8.3911E+002
 699.00  8.4300E+002
 699.50  8.4260E+002
 700.00  8.4142E+002
 700.50  8.2827E+002
 701.00  8.1572E+002
 701.50  8.1426E+002
 702.00  8.1361E+002
 702.50  8.1558E+002
 703.00  8.1984E+002
 703.50  8.2004E+002
 704.00  8.2870E+002
 704.50  8.4358E+002
 705.00  8.5773E+002
 705.50  8.7016E+002
 706.00  8.6851E+002
 706.50  8.6254E+002
 707.00  8.5438E+002
 707.50  8.4128E+002
 708.00  8.3622E+002
 708.50  8.3578E+002
 709.00  8.3398E+002
 709.50  8.3748E+002
 710.00  8.4439E+002
 710.50  8.4745E+002
 711.00  8.5303E+002
 711.50  8.6455E+002
 712.00  8.6121E+002
 712.50  8.4824E+002
 713.00  8.3403E+002
 713.50  8.1990E+002
 714.00  8.1028E+002
 714.50  8.0766E+002
 715.00  8.0865E+002
 715.50  8.0880E+002
 716.00  8.0728E+002
 716.50  8.0773E+002
 717.00  8.1048E+002
 717.50  8.0647E+002
 718.00  7.9819E+002
 718.50  7.8840E+002
 719.00  7.7371E+002
 719.50  7.6399E+002
 720.00  7.7257E+002
 720.50  7.8728E+002
 721.00  7.9838E+002
 721.50  8.0830E+002
 722.00  8.1302E+002
 722.50  8.0742E+002
 723.00  8.0438E+002
 723.50  8.1010E+002
 724.00  8.1775E+002
 724.50  8.2541E+002
 725.00  8.2925E+002
 725.50  8.3059E+002
 726.00  8.3446E+002
 726.50  8.3535E+002
 727.00  8.4452E+002
 727.50  8.5273E+002
 728.00  8.4839E+002
 728.50  8.4484E+002
 729.00  8.4810E+002
 729.50  8.5127E+002
 730.00  8.5484E+002
 730.50  8.5830E+002
 731.00  8.5618E+002
 731.50  8.5236E+002
 732.00  8.5129E+002
 732.50  8.5025E+002
 733.00  8.5345E+002
 733.50  8.5459E+002
 734.00  8.5828E+002
 734.50  8.6815E+002
 735.00  8.6741E+002
 735.50  8.6445E+002
 736.00  8.5422E+002
 736.50  8.3515E+002
 737.00  8.2393E+002
 737.50  8.1466E+002
 738.00  8.0756E+002
 738.50  8.0907E+002
 739.00  8.1524E+002
 739.50  8.2031E+002
 740.00  8.3024E+002
 740.50  8.3626E+002
 741.00  8.3451E+002
 741.50  8.3438E+002
 742.00  8.3572E+002
 742.50  8.4161E+002
 743.00  8.4395E+002
 743.50  8.4126E+002
 744.00  8.3724E+002
 744.50  8.2842E+002
 745.00  8.2001E+002
 745.50  8.1734E+002
 746.00  8.0813E+002
 746.50  7.9625E+002
 747.00  7.9877E+002
 747.50  8.0708E+002
 748.00  8.1750E+002
 748.50  8.2806E+002
 749.00  8.3358E+002
 749.50  8.3543E+002
 750.00  8.3232E+002
 750.50  8.3653E+002
 751.00  8.4043E+002
 751.50  8.4807E+002
 752.00  8.6409E+002
 752.50  8.6726E+002
 753.00  8.6701E+002
 753.50  8.5945E+002
 754.00  8.4803E+002
 754.50  8.5252E+002
 755.00  8.5376E+002
 755.50  8.4446E+002
 756.00  8.3458E+002
 756.50  8.2160E+002
 757.00  8.1927E+002
 757.50  8.2907E+002
 758.00  8.3431E+002
 758.50  8.3736E+002
 759.00  8.4408E+002
 759.50  8.4985E+002
 760.00  8.5999E+002
 760.50  8.7278E+002
 761.00  8.7399E+002
 761.50  8.6752E+002
 762.00  8.6103E+002
 762.50  8.4755E+002
 763.00  8.3377E+002
 763.50  8.2156E+002
 764.00  8.1135E+002
 764.50  8.1160E+002
 765.00  8.0913E+002
 765.50  8.0358E+002
 766.00  7.9946E+002
 766.50  7.8917E+002
 767.00  7.9079E+002
 767.50  8.0356E+002
 768.00  8.1320E+002
 768.50  8.1962E+002
 769.00  8.1628E+002
 769.50  8.0952E+002
 770.00  8.0912E+002
 770.50  8.1827E+002
 771.00  8.3423E+002
 771.50  8.4003E+002
 772.00  8.3814E+002
 772.50  8.3271E+002
 773.00  8.1438E+002
 773.50  7.9520E+002
 774.00  7.9838E+002
 774.50  8.0397E+002
 775.00  8.1863E+002
 775.50  8.3879E+002
 776.00  8.5026E+002
 776.50  8.5326E+002
 777.00  8.5216E+002
 777.50  8.5027E+002
 778.00  8.4257E+002
 778.50  8.3321E+002
 779.00  8.2768E+002
 779.50  8.2281E+002
 780.00  8.2372E+002
 780.50  8.2934E+002
 781.00  8.3421E+002
 781.50  8.4363E+002
 782.00  8.4635E+002
 782.50  8.5029E+002
 783.00  8.5677E+002
 783.50  8.5417E+002
 784.00  8.5632E+002
 784.50  8.5981E+002
 785.00  8.5709E+002
 785.50  8.5324E+002
 786.00  8.4544E+002
 786.50  8.3591E+002
 787.00  8.2794E+002
 787.50  8.2607E+002
 788.00  8.2498E+002
 788.50  8.1920E+002
 789.00  8.1632E+002
 789.50  8.1793E+002
 790.00  8.2014E+002
 790.50  8.2161E+002
 791.00  8.1983E+002
 791.50  8.1074E+002
 792.00  8.0280E+002
 792.50  8.0034E+002
 793.00  7.9866E+002
 793.50  7.9584E+002
 794.00  7.9736E+002
 794.50  8.0356E+002
 795.00  8.0584E+002
 795.50  8.1358E+002
 796.00  8.2961E+002
 796.50  8.4691E+002
 797.00  8.6340E+002
 797.50  8.8325E+002
 798.00  8.9410E+002
 798.50  8.8837E+002
 799.00  8.8101E+002
 799.50  8.7080E+002
 800.00  8.5433E+002
 800.50  8.3797E+002
 801.00  8.3109E+002
 801.50  8.3098E+002
 802.00  8.3864E+002
 802.50  8.5431E+002
 803.00  8.6175E+002
 803.50  8.6388E+002
 804.00  8.6006E+002
 804.50  8.5176E+002
 805.00  8.4693E+002
 805.50  8.4675E+002
 806.00  8.4945E+002
 806.50  8.5343E+002
 807.00  8.5745E+002
 807.50  8.5476E+002
 808.00  8.5311E+002
 808.50  8.5768E+002
 809.00  8.5605E+002
 809.50  8.5034E+002
 810.00  8.4511E+002
 810.50  8.4021E+002
 811.00  8.4403E+002
 811.50  8.4945E+002
 812.00  8.4953E+002
 812.50  8.4699E+002
 813.00  8.4452E+002
 813.50  8.4419E+002
 814.00  8.5092E+002
 814.50  8.4975E+002
 815.00  8.4408E+002
 815.50  8.4009E+002
 816.00  8.3718E+002
 816.50  8.4360E+002
 817.00  8.5348E+002
 817.50  8.5668E+002
 818.00  8.5390E+002
 818.50  8.4464E+002
 819.00  8.2948E+002
 819.50  8.2551E+002
 820.00  8.2813E+002
 820.50  8.3056E+002
 821.00  8.3847E+002
 821.50  8.4614E+002
 822.00  8.4192E+002
 822.50  8.3669E+002
 823.00  8.4133E+002
 823.50  8.4539E+002
 824.00  8.5086E+002
 824.50  8.5752E+002
 825.00  8.5213E+002
 825.50  8.4079E+002
 826.00  8.3973E+002
 826.50  8.4485E+002
 827.00  8.4536E+002
 827.50  8.4442E+002
 828.00  8.4395E+002
 828.50  8.4817E+002
 829.00  8.5922E+002
 829.50  8.6382E+002
 830.00  8.5324E+002
 830.50  8.2924E+002
 831.00  8.1977E+002
 831.50  8.3166E+002
 832.00  8.4935E+002
 832.50  8.6381E+002
 833.00  8.6240E+002
 833.50  8.5224E+002
 834.00  8.3983E+002
 834.50  8.3294E+002
 835.00  8.3467E+002
 835.50  8.3200E+002
 836.00  8.3316E+002
 836.50  8.3472E+002
 837.00  8.2941E+002
 837.50  8.2500E+002
 838.00  8.2055E+002
 838.50  8.1947E+002
 839.00  8.1998E+002
 839.50  8.2387E+002
 840.00  8.3201E+002
 840.50  8.4137E+002
 841.00  8.5187E+002
 841.50  8.6016E+002
 842.00  8.6805E+002
 842.50  8.7778E+002
 843.00  9.0163E+002
 843.50  9.4688E+002
 844.00  1.0277E+003
 844.50  1.1477E+003
 845.00  1.2799E+003
 845.50  1.4243E+003
 846.00  1.5709E+003
 846.50  1.7143E+003
 847.00  1.8668E+003
 847.50  2.0139E+003
 848.00  2.1369E+003
 848.50  2.2396E+003
 849.00  2.3165E+003
 849.50  2.3660E+003
 850.00  2.3952E+003
 850.50  2.4052E+003
 851.00  2.4037E+003
 851.50  2.3999E+003
 852.00  2.3848E+003
 852.50  2.3656E+003
 853.00  2.3280E+003
 853.50  2.2421E+003
 854.00  2.1233E+003
 854.50  1.9726E+003
 855.00  1.7872E+003
 855.50  1.5925E+003
 856.00  1.3950E+003
 856.50  1.2050E+003
 857.00  1.0594E+003
 857.50  9.6468E+002
 858.00  9.1798E+002
 858.50  9.0810E+002
 859.00  8.9805E+002
 859.50  8.8317E+002
 860.00  8.7041E+002
 860.50  8.5562E+002
 861.00  8.5060E+002
 861.50  8.4861E+002
 862.00  8.3793E+002
 862.50  8.2827E+002
 863.00  8.2738E+002
 863.50  8.3521E+002
 864.00  8.3987E+002
 864.50  8.4328E+002
 865.00  8.4701E+002
 865.50  8.3938E+002
 866.00  8.3310E+002
 866.50  8.2917E+002
 867.00  8.2284E+002
 867.50  8.2329E+002
 868.00  8.2877E+002
 868.50  8.3282E+002
 869.00  8.3861E+002
 869.50  8.4571E+002
 870.00  8.4878E+002
 870.50  8.6013E+002
 871.00  8.7332E+002
 871.50  8.8575E+002
 872.00  9.0131E+002
 872.50  8.9870E+002
 873.00  8.8510E+002
 873.50  8.7850E+002
 874.00  8.7162E+002
 874.50  8.7305E+002
 875.00  8.8216E+002
 875.50  8.7636E+002
 876.00  8.5770E+002
 876.50  8.3757E+002
 877.00  8.1907E+002
 877.50  8.2347E+002
 878.00  8.3958E+002
 878.50  8.5481E+002
 879.00  8.5999E+002
 879.50  8.4695E+002
 880.00  8.4105E+002
 880.50  8.3728E+002
 881.00  8.4139E+002
 881.50  8.5051E+002
 882.00  8.5326E+002
 882.50  8.5471E+002
 883.00  8.5530E+002
 883.50  8.5429E+002
 884.00  8.4929E+002
 884.50  8.4228E+002
 885.00  8.4039E+002
 885.50  8.3601E+002
 886.00  8.3827E+002
 886.50  8.4140E+002
 887.00  8.4196E+002
 887.50  8.4395E+002
 888.00  8.4358E+002
 888.50  8.4632E+002
 889.00  8.4780E+002
 889.50  8.4609E+002
 890.00  8.5112E+002
 890.50  8.5495E+002
 891.00  8.5350E+002
 891.50  8.5379E+002
 892.00  8.4969E+002
 892.50  8.4688E+002
 893.00  8.5069E+002
 893.50  8.5783E+002
 894.00  8.6281E+002
 894.50  8.5566E+002
 895.00  8.5001E+002
 895.50  8.5749E+002
 896.00  8.6631E+002
 896.50  8.8143E+002
 897.00  8.8164E+002
 897.50  8.6173E+002
 898.00  8.4482E+002
 898.50  8.3843E+002
 899.00  8.3180E+002
 899.50  8.3823E+002
 900.00  8.4096E+002
 900.50  8.3808E+002
 901.00  8.3412E+002
 901.50  8.2251E+002
 902.00  8.2324E+002
 902.50  8.3220E+002
 903.00  8.4387E+002
 903.50  8.5173E+002
 904.00  8.5359E+002
 904.50  8.5772E+002
 905.00  8.5482E+002
 905.50  8.4580E+002
 906.00  8.3327E+002
 906.50  8.2252E+002
 907.00  8.1467E+002
 907.50  8.1600E+002
 908.00  8.0989E+002
 908.50  8.0992E+002
 909.00  8.0845E+002
 909.50  8.0889E+002
 910.00  8.1531E+002
 910.50  8.2199E+002
 911.00  8.3741E+002
 911.50  8.4086E+002
 912.00  8.3838E+002
 912.50  8.3472E+002
 913.00  8.3094E+002
 913.50  8.2687E+002
 914.00  8.1324E+002
 914.50  8.0211E+002
 915.00  7.9322E+002
 915.50  8.0129E+002
 916.00  8.2848E+002
 916.50  8.4899E+002
 917.00  8.5677E+002
 917.50  8.6310E+002
 918.00  8.6594E+002
 918.50  8.7375E+002
 919.00  8.9042E+002
 919.50  8.9741E+002
 920.00  8.8953E+002
 920.50  8.8408E+002
 921.00  8.7802E+002
 921.50  8.7342E+002
 922.00  8.7376E+002
 922.50  8.7093E+002
 923.00  8.6826E+002
 923.50  8.6202E+002
 924.00  8.5886E+002
 924.50  8.5660E+002
 925.00  8.6391E+002
 925.50  8.7080E+002
 926.00  8.7366E+002
 926.50  8.6584E+002
 927.00  8.5667E+002
 927.50  8.5022E+002
 928.00  8.4063E+002
 928.50  8.3031E+002
 929.00  8.2350E+002
 929.50  8.2188E+002
 930.00  8.2419E+002
 930.50  8.2562E+002
 931.00  8.2103E+002
 931.50  8.2471E+002
 932.00  8.3420E+002
 932.50  8.4212E+002
 933.00  8.4413E+002
 933.50  8.3063E+002
 934.00  8.1447E+002
 934.50  8.0817E+002
 935.00  8.0803E+002
 935.50  8.1391E+002
 936.00  8.0707E+002
 936.50  8.0031E+002
 937.00  7.9372E+002
 937.50  8.0799E+002
 938.00  8.2923E+002
 938.50  8.4305E+002
 939.00  8.4848E+002
 939.50  8.4203E+002
 940.00  8.4291E+002
 940.50  8.4742E+002
 941.00  8.4950E+002
 941.50  8.4582E+002
 942.00  8.3640E+002
 942.50  8.2532E+002
 943.00  8.2095E+002
 943.50  8.2968E+002
 944.00  8.3624E+002
 944.50  8.4851E+002
 945.00  8.5456E+002
 945.50  8.5797E+002
 946.00  8.5496E+002
 946.50  8.4759E+002
 947.00  8.3367E+002
 947.50  8.2051E+002
 948.00  8.1543E+002
 948.50  8.1414E+002
 949.00  8.1223E+002
 949.50  8.1186E+002
 950.00  8.2110E+002
 950.50  8.3772E+002
 951.00  8.5064E+002
 951.50  8.5446E+002
 952.00  8.4953E+002
 952.50  8.3071E+002
 953.00  8.0877E+002
 953.50  7.9054E+002
 954.00  7.8646E+002
 954.50  7.9241E+002
 955.00  8.0942E+002
 955.50  8.0491E+002
 956.00  7.9553E+002
 956.50  8.0188E+002
 957.00  8.0557E+002
 957.50  8.2019E+002
 958.00  8.2128E+002
 958.50  8.1513E+002
 959.00  8.1856E+002
 959.50  8.2755E+002
 960.00  8.4940E+002
 960.50  8.7360E+002
 961.00  8.9376E+002
 961.50  9.0184E+002
 962.00  8.9043E+002
 962.50  8.8850E+002
 963.00  8.8779E+002
 963.50  8.8726E+002
 964.00  8.7923E+002
 964.50  8.6136E+002
 965.00  8.6000E+002
 965.50  8.6877E+002
 966.00  8.7932E+002
 966.50  8.7121E+002
 967.00  8.4698E+002
 967.50  8.2217E+002
 968.00  8.2258E+002
 968.50  8.3623E+002
 969.00  8.4081E+002
 969.50  8.3604E+002
 970.00  8.1930E+002
 970.50  8.1483E+002
 971.00  8.3333E+002
 971.50  8.4532E+002
 972.00  8.4555E+002
 972.50  8.3449E+002
 973.00  8.2266E+002
 973.50  8.2847E+002
 974.00  8.4292E+002
 974.50  8.4686E+002
 975.00  8.5534E+002
 975.50  8.6168E+002
 976.00  8.6380E+002
 976.50  8.6383E+002
 977.00  8.4846E+002
 977.50  8.2222E+002
 978.00  8.1636E+002
 978.50  8.1589E+002
 979.00  8.2125E+002
 979.50  8.3770E+002
 980.00  8.4129E+002
 980.50  8.4737E+002
 981.00  8.4159E+002
 981.50  8.3309E+002
 982.00  8.3417E+002
 982.50  8.4279E+002
 983.00  8.5069E+002
 983.50  8.5114E+002
 984.00  8.5009E+002
 984.50  8.4684E+002
 985.00  8.4076E+002
 985.50  8.4040E+002
 986.00  8.4128E+002
 986.50  8.4518E+002
 987.00  8.4481E+002
 987.50  8.3282E+002
 988.00  8.2625E+002
 988.50  8.2683E+002
 989.00  8.2937E+002
 989.50  8.3226E+002
 990.00  8.3298E+002
 990.50  8.2767E+002
 991.00  8.2374E+002
 991.50  8.1716E+002
 992.00  8.1909E+002
 992.50  8.2066E+002
 993.00  8.2008E+002
 993.50  8.1944E+002
 994.00  8.1336E+002
 994.50  8.0894E+002
 995.00  7.9901E+002
 995.50  7.9656E+002
 996.00  8.0081E+002
 996.50  8.1232E+002
 997.00  8.3290E+002
 997.50  8.3607E+002
 998.00  8.3125E+002
 998.50  8.2550E+002
 999.00  8.2816E+002
 999.50  8.3287E+002
1000.00  8.2150E+002
1000.50  8.0728E+002
1001.00  8.0170E+002
1001.50  8.1430E+002
1002.00  8.2779E+002
1002.50  8.4003E+002
1003.00  8.3814E+002
1003.50  8.3978E+002
1004.00  8.4176E+002
1004.50  8.4165E+002
1005.00  8.5097E+002
1005.50  8.6151E+002
1006.00  8.6728E+002
1006.50  8.6709E+002
1007.00  8.5934E+002
1007.50  8.5220E+002
1008.00  8.5534E+002
1008.50  8.6024E+002
1009.00  8.6652E+002
1009.50  8.6455E+002
1010.00  8.4761E+002
1010.50  8.2753E+002
1011.00  8.0394E+002
1011.50  8.0172E+002
1012.00  8.2052E+002
1012.50  8.3239E+002
1013.00  8.4034E+002
1013.50  8.2993E+002
1014.00  8.2209E+002
1014.50  8.2210E+002
1015.00  8.2807E+002
1015.50  8.3972E+002
1016.00  8.4349E+002
1016.50  8.4081E+002
1017.00  8.2699E+002
1017.50  8.1942E+002
1018.00  8.0754E+002
1018.50  8.0109E+002
1019.00  8.0365E+002
1019.50  8.0652E+002
1020.00  8.1546E+002
1020.50  8.1469E+002
1021.00  8.1536E+002
1021.50  8.2065E+002
1022.00  8.2267E+002
1022.50  8.3358E+002
1023.00  8.3792E+002
1023.50  8.5801E+002
1024.00  8.6925E+002
1024.50  8.6414E+002
1025.00  8.5267E+002
1025.50  8.4056E+002
1026.00  8.4291E+002
1026.50  8.5747E+002
1027.00  8.6899E+002
1027.50  8.7292E+002
1028.00  8.6930E+002
1028.50  8.6802E+002
1029.00  8.6616E+002
1029.50  8.6626E+002
1030.00  8.5454E+002
1030.50  8.3983E+002
1031.00  8.3967E+002
1031.50  8.4637E+002
1032.00  8.5812E+002
1032.50  8.5300E+002
1033.00  8.5034E+002
1033.50  8.3871E+002
1034.00  8.3546E+002
1034.50  8.3183E+002
1035.00  8.2190E+002
1035.50  8.1712E+002
1036.00  8.0852E+002
1036.50  8.1631E+002
1037.00  8.2924E+002
1037.50  8.4701E+002
1038.00  8.4669E+002
1038.50  8.3841E+002
1039.00  8.2011E+002
1039.50  8.1556E+002
1040.00  8.3129E+002
1040.50  8.4651E+002
1041.00  8.5601E+002
1041.50  8.4047E+002
1042.00  8.2748E+002
1042.50  8.2660E+002
1043.00  8.3421E+002
1043.50  8.3794E+002
1044.00  8.3772E+002
1044.50  8.4121E+002
1045.00  8.3882E+002
1045.50  8.4893E+002
1046.00  8.5444E+002
1046.50  8.5834E+002
1047.00  8.5376E+002
1047.50  8.4161E+002
1048.00  8.3328E+002
1048.50  8.3259E+002
1049.00  8.2837E+002
1049.50  8.3374E+002
1050.00  8.3258E+002
1050.50  8.3571E+002
1051.00  8.4878E+002
1051.50  8.6011E+002
1052.00  8.7184E+002
1052.50  8.7071E+002
1053.00  8.5331E+002
1053.50  8.3987E+002
1054.00  8.3709E+002
1054.50  8.3225E+002
1055.00  8.3637E+002
1055.50  8.3642E+002
1056.00  8.4974E+002
1056.50  8.5255E+002
1057.00  8.3971E+002
1057.50  8.3243E+002
1058.00  8.3725E+002
1058.50  8.5396E+002
1059.00  8.4472E+002
1059.50  8.2497E+002
1060.00  8.0970E+002
1060.50  8.0788E+002
1061.00  8.1723E+002
1061.50  8.2685E+002
1062.00  8.3574E+002
1062.50  8.5330E+002
1063.00  8.6627E+002
1063.50  8.6199E+002
1064.00  8.5920E+002
1064.50  8.4467E+002
1065.00  8.3806E+002
1065.50  8.2533E+002
1066.00  8.1202E+002
1066.50  8.0377E+002
1067.00  7.9757E+002
1067.50  8.0193E+002
1068.00  8.1327E+002
1068.50  8.4379E+002
1069.00  8.6530E+002
1069.50  8.6467E+002
1070.00  8.5135E+002
1070.50  8.3624E+002
1071.00  8.3884E+002
1071.50  8.3790E+002
1072.00  8.2707E+002
1072.50  6.6084E+002
