" File: Users\LabUser\Documents\MonochromatorCal
"  SCOPE->  Wave:693.48nm  Pix:1050  Val:905.000  Time:100ms  Avg:1  Sm:1  Sg:0  Tc:off  SNAP  Xt:3  Ch:1  Xtrig  
 191.00  8.0127E+002
 191.50  8.0498E+002
 192.00  8.3294E+002
 192.50  8.3951E+002
 193.00  8.3741E+002
 193.50  8.1791E+002
 194.00  8.1446E+002
 194.50  8.2227E+002
 195.00  8.1827E+002
 195.50  8.0878E+002
 196.00  8.0500E+002
 196.50  7.9868E+002
 197.00  7.9031E+002
 197.50  7.9641E+002
 198.00  8.0659E+002
 198.50  8.0743E+002
 199.00  7.9792E+002
 199.50  8.1101E+002
 200.00  8.4186E+002
 200.50  8.5705E+002
 201.00  8.4612E+002
 201.50  8.1042E+002
 202.00  8.2049E+002
 202.50  8.2982E+002
 203.00  8.3106E+002
 203.50  8.3241E+002
 204.00  8.3035E+002
 204.50  8.2744E+002
 205.00  8.2639E+002
 205.50  8.2375E+002
 206.00  8.1744E+002
 206.50  8.1364E+002
 207.00  8.1410E+002
 207.50  8.1635E+002
 208.00  8.2244E+002
 208.50  8.3169E+002
 209.00  8.3604E+002
 209.50  8.3505E+002
 210.00  8.3027E+002
 210.50  8.2385E+002
 211.00  8.2133E+002
 211.50  8.2767E+002
 212.00  8.3840E+002
 212.50  8.4614E+002
 213.00  8.5079E+002
 213.50  8.5379E+002
 214.00  8.5419E+002
 214.50  8.5315E+002
 215.00  8.5293E+002
 215.50  8.5499E+002
 216.00  8.5837E+002
 216.50  8.5807E+002
 217.00  8.5424E+002
 217.50  8.5219E+002
 218.00  8.5208E+002
 218.50  8.4874E+002
 219.00  8.4331E+002
 219.50  8.3672E+002
 220.00  8.2547E+002
 220.50  8.1062E+002
 221.00  8.0118E+002
 221.50  8.0057E+002
 222.00  8.0198E+002
 222.50  8.0733E+002
 223.00  8.1808E+002
 223.50  8.2278E+002
 224.00  8.1619E+002
 224.50  8.1261E+002
 225.00  8.1187E+002
 225.50  8.1030E+002
 226.00  8.0845E+002
 226.50  8.0786E+002
 227.00  8.1046E+002
 227.50  8.1326E+002
 228.00  8.1729E+002
 228.50  8.2318E+002
 229.00  8.2836E+002
 229.50  8.3083E+002
 230.00  8.3120E+002
 230.50  8.2960E+002
 231.00  8.2606E+002
 231.50  8.2947E+002
 232.00  8.3471E+002
 232.50  8.3401E+002
 233.00  8.3422E+002
 233.50  8.3914E+002
 234.00  8.3994E+002
 234.50  8.4202E+002
 235.00  8.5267E+002
 235.50  8.6291E+002
 236.00  8.6902E+002
 236.50  8.7325E+002
 237.00  8.7839E+002
 237.50  8.8384E+002
 238.00  8.8649E+002
 238.50  8.8146E+002
 239.00  8.6797E+002
 239.50  8.5205E+002
 240.00  8.3853E+002
 240.50  8.2970E+002
 241.00  8.2682E+002
 241.50  8.2983E+002
 242.00  8.3687E+002
 242.50  8.4399E+002
 243.00  8.4266E+002
 243.50  8.3878E+002
 244.00  8.4081E+002
 244.50  8.4476E+002
 245.00  8.4606E+002
 245.50  8.5145E+002
 246.00  8.5994E+002
 246.50  8.6980E+002
 247.00  8.7838E+002
 247.50  8.8149E+002
 248.00  8.7535E+002
 248.50  8.6195E+002
 249.00  8.4357E+002
 249.50  8.1984E+002
 250.00  8.0018E+002
 250.50  7.9469E+002
 251.00  7.9664E+002
 251.50  7.9841E+002
 252.00  8.0302E+002
 252.50  8.0770E+002
 253.00  8.0465E+002
 253.50  7.9653E+002
 254.00  7.9136E+002
 254.50  7.8742E+002
 255.00  7.8328E+002
 255.50  7.8722E+002
 256.00  7.9686E+002
 256.50  8.0443E+002
 257.00  8.0931E+002
 257.50  8.1431E+002
 258.00  8.1617E+002
 258.50  8.1656E+002
 259.00  8.2038E+002
 259.50  8.2501E+002
 260.00  8.2695E+002
 260.50  8.2850E+002
 261.00  8.3096E+002
 261.50  8.3277E+002
 262.00  8.3644E+002
 262.50  8.4093E+002
 263.00  8.4300E+002
 263.50  8.4071E+002
 264.00  8.3841E+002
 264.50  8.3973E+002
 265.00  8.4889E+002
 265.50  8.5604E+002
 266.00  8.5766E+002
 266.50  8.5405E+002
 267.00  8.4442E+002
 267.50  8.3358E+002
 268.00  8.3046E+002
 268.50  8.3355E+002
 269.00  8.4067E+002
 269.50  8.5152E+002
 270.00  8.6163E+002
 270.50  8.6598E+002
 271.00  8.6546E+002
 271.50  8.6322E+002
 272.00  8.6048E+002
 272.50  8.5779E+002
 273.00  8.5261E+002
 273.50  8.4521E+002
 274.00  8.4186E+002
 274.50  8.3968E+002
 275.00  8.3607E+002
 275.50  8.3514E+002
 276.00  8.4149E+002
 276.50  8.4783E+002
 277.00  8.4894E+002
 277.50  8.4559E+002
 278.00  8.4193E+002
 278.50  8.3926E+002
 279.00  8.3504E+002
 279.50  8.2609E+002
 280.00  8.1532E+002
 280.50  8.0555E+002
 281.00  7.9758E+002
 281.50  7.9540E+002
 282.00  8.0130E+002
 282.50  8.1168E+002
 283.00  8.2520E+002
 283.50  8.3893E+002
 284.00  8.4615E+002
 284.50  8.4834E+002
 285.00  8.5172E+002
 285.50  8.5182E+002
 286.00  8.4352E+002
 286.50  8.3752E+002
 287.00  8.3559E+002
 287.50  8.3380E+002
 288.00  8.3347E+002
 288.50  8.3850E+002
 289.00  8.4484E+002
 289.50  8.4510E+002
 290.00  8.3621E+002
 290.50  8.2365E+002
 291.00  8.1053E+002
 291.50  7.9900E+002
 292.00  7.9901E+002
 292.50  8.0570E+002
 293.00  8.1612E+002
 293.50  8.3498E+002
 294.00  8.5309E+002
 294.50  8.6104E+002
 295.00  8.6401E+002
 295.50  8.6416E+002
 296.00  8.5699E+002
 296.50  8.4637E+002
 297.00  8.3907E+002
 297.50  8.3803E+002
 298.00  8.4501E+002
 298.50  8.5655E+002
 299.00  8.6731E+002
 299.50  8.7681E+002
 300.00  8.8370E+002
 300.50  8.8447E+002
 301.00  8.7989E+002
 301.50  8.7350E+002
 302.00  8.6370E+002
 302.50  8.5677E+002
 303.00  8.5572E+002
 303.50  8.5910E+002
 304.00  8.6672E+002
 304.50  8.7934E+002
 305.00  8.8800E+002
 305.50  8.9070E+002
 306.00  8.9280E+002
 306.50  8.9260E+002
 307.00  8.9260E+002
 307.50  8.8905E+002
 308.00  8.8100E+002
 308.50  8.7052E+002
 309.00  8.6289E+002
 309.50  8.5221E+002
 310.00  8.4364E+002
 310.50  8.4014E+002
 311.00  8.3810E+002
 311.50  8.3384E+002
 312.00  8.2975E+002
 312.50  8.2847E+002
 313.00  8.2956E+002
 313.50  8.3169E+002
 314.00  8.3582E+002
 314.50  8.4086E+002
 315.00  8.4070E+002
 315.50  8.3566E+002
 316.00  8.2971E+002
 316.50  8.2327E+002
 317.00  8.1761E+002
 317.50  8.1503E+002
 318.00  8.1399E+002
 318.50  8.1234E+002
 319.00  8.1045E+002
 319.50  8.0679E+002
 320.00  8.0141E+002
 320.50  7.9613E+002
 321.00  7.9511E+002
 321.50  7.9624E+002
 322.00  8.0114E+002
 322.50  8.1038E+002
 323.00  8.1540E+002
 323.50  8.1939E+002
 324.00  8.3234E+002
 324.50  8.4199E+002
 325.00  8.4440E+002
 325.50  8.5463E+002
 326.00  8.6656E+002
 326.50  8.6240E+002
 327.00  8.5719E+002
 327.50  8.5640E+002
 328.00  8.5875E+002
 328.50  8.6129E+002
 329.00  8.6667E+002
 329.50  8.6718E+002
 330.00  8.5817E+002
 330.50  8.4394E+002
 331.00  8.3527E+002
 331.50  8.3098E+002
 332.00  8.3007E+002
 332.50  8.3942E+002
 333.00  8.5479E+002
 333.50  8.6302E+002
 334.00  8.6714E+002
 334.50  8.7439E+002
 335.00  8.7863E+002
 335.50  8.7302E+002
 336.00  8.6416E+002
 336.50  8.5612E+002
 337.00  8.4765E+002
 337.50  8.4099E+002
 338.00  8.4026E+002
 338.50  8.4002E+002
 339.00  8.3377E+002
 339.50  8.2358E+002
 340.00  8.1661E+002
 340.50  8.1380E+002
 341.00  8.1073E+002
 341.50  8.0891E+002
 342.00  8.0931E+002
 342.50  8.0662E+002
 343.00  8.0621E+002
 343.50  8.1746E+002
 344.00  8.3056E+002
 344.50  8.3453E+002
 345.00  8.3429E+002
 345.50  8.2955E+002
 346.00  8.1769E+002
 346.50  8.0989E+002
 347.00  8.1192E+002
 347.50  8.1740E+002
 348.00  8.2109E+002
 348.50  8.2167E+002
 349.00  8.1666E+002
 349.50  8.1488E+002
 350.00  8.1996E+002
 350.50  8.2219E+002
 351.00  8.1864E+002
 351.50  8.1669E+002
 352.00  8.1418E+002
 352.50  8.0653E+002
 353.00  8.0366E+002
 353.50  8.1379E+002
 354.00  8.3178E+002
 354.50  8.4610E+002
 355.00  8.5698E+002
 355.50  8.6582E+002
 356.00  8.6935E+002
 356.50  8.7174E+002
 357.00  8.7638E+002
 357.50  8.7845E+002
 358.00  8.7514E+002
 358.50  8.6982E+002
 359.00  8.5702E+002
 359.50  8.4375E+002
 360.00  8.3857E+002
 360.50  8.3907E+002
 361.00  8.4560E+002
 361.50  8.6231E+002
 362.00  8.8101E+002
 362.50  8.8986E+002
 363.00  8.9578E+002
 363.50  8.9628E+002
 364.00  8.8376E+002
 364.50  8.6785E+002
 365.00  8.5860E+002
 365.50  8.4845E+002
 366.00  8.4139E+002
 366.50  8.4102E+002
 367.00  8.3807E+002
 367.50  8.3281E+002
 368.00  8.3295E+002
 368.50  8.3194E+002
 369.00  8.3080E+002
 369.50  8.3095E+002
 370.00  8.3451E+002
 370.50  8.3723E+002
 371.00  8.3815E+002
 371.50  8.4274E+002
 372.00  8.4707E+002
 372.50  8.4246E+002
 373.00  8.3748E+002
 373.50  8.4051E+002
 374.00  8.3638E+002
 374.50  8.2620E+002
 375.00  8.2647E+002
 375.50  8.3014E+002
 376.00  8.2720E+002
 376.50  8.2752E+002
 377.00  8.3393E+002
 377.50  8.2967E+002
 378.00  8.2255E+002
 378.50  8.1989E+002
 379.00  8.1395E+002
 379.50  8.1132E+002
 380.00  8.1708E+002
 380.50  8.2073E+002
 381.00  8.1780E+002
 381.50  8.1781E+002
 382.00  8.1799E+002
 382.50  8.1769E+002
 383.00  8.2063E+002
 383.50  8.2130E+002
 384.00  8.1832E+002
 384.50  8.1645E+002
 385.00  8.2299E+002
 385.50  8.3673E+002
 386.00  8.5241E+002
 386.50  8.6416E+002
 387.00  8.6662E+002
 387.50  8.5936E+002
 388.00  8.4284E+002
 388.50  8.3200E+002
 389.00  8.2948E+002
 389.50  8.3058E+002
 390.00  8.3303E+002
 390.50  8.3804E+002
 391.00  8.4261E+002
 391.50  8.4532E+002
 392.00  8.5210E+002
 392.50  8.5586E+002
 393.00  8.5191E+002
 393.50  8.4132E+002
 394.00  8.3203E+002
 394.50  8.2897E+002
 395.00  8.3324E+002
 395.50  8.3982E+002
 396.00  8.5216E+002
 396.50  8.6620E+002
 397.00  8.7035E+002
 397.50  8.6653E+002
 398.00  8.6130E+002
 398.50  8.5310E+002
 399.00  8.4268E+002
 399.50  8.3362E+002
 400.00  8.3379E+002
 400.50  8.4401E+002
 401.00  8.5431E+002
 401.50  8.5789E+002
 402.00  8.6013E+002
 402.50  8.5759E+002
 403.00  8.5135E+002
 403.50  8.4551E+002
 404.00  8.3981E+002
 404.50  8.3595E+002
 405.00  8.3285E+002
 405.50  8.2691E+002
 406.00  8.2044E+002
 406.50  8.1890E+002
 407.00  8.1477E+002
 407.50  8.1068E+002
 408.00  8.1327E+002
 408.50  8.1977E+002
 409.00  8.3010E+002
 409.50  8.4325E+002
 410.00  8.4782E+002
 410.50  8.4514E+002
 411.00  8.4361E+002
 411.50  8.3874E+002
 412.00  8.3325E+002
 412.50  8.3479E+002
 413.00  8.3830E+002
 413.50  8.3784E+002
 414.00  8.3692E+002
 414.50  8.3772E+002
 415.00  8.3955E+002
 415.50  8.4140E+002
 416.00  8.4367E+002
 416.50  8.4486E+002
 417.00  8.4554E+002
 417.50  8.5190E+002
 418.00  8.5815E+002
 418.50  8.6047E+002
 419.00  8.6423E+002
 419.50  8.6784E+002
 420.00  8.6220E+002
 420.50  8.5896E+002
 421.00  8.6170E+002
 421.50  8.6775E+002
 422.00  8.7803E+002
 422.50  8.8624E+002
 423.00  8.8863E+002
 423.50  8.8333E+002
 424.00  8.6529E+002
 424.50  8.4118E+002
 425.00  8.2738E+002
 425.50  8.2066E+002
 426.00  8.2029E+002
 426.50  8.2866E+002
 427.00  8.3675E+002
 427.50  8.3924E+002
 428.00  8.3707E+002
 428.50  8.3561E+002
 429.00  8.3384E+002
 429.50  8.3134E+002
 430.00  8.3080E+002
 430.50  8.3620E+002
 431.00  8.4484E+002
 431.50  8.5230E+002
 432.00  8.5937E+002
 432.50  8.6140E+002
 433.00  8.5350E+002
 433.50  8.4322E+002
 434.00  8.4035E+002
 434.50  8.4044E+002
 435.00  8.4137E+002
 435.50  8.4194E+002
 436.00  8.3399E+002
 436.50  8.2022E+002
 437.00  8.0957E+002
 437.50  8.0084E+002
 438.00  7.9465E+002
 438.50  7.9537E+002
 439.00  8.0009E+002
 439.50  8.0290E+002
 440.00  8.0582E+002
 440.50  8.1217E+002
 441.00  8.1658E+002
 441.50  8.1394E+002
 442.00  8.1311E+002
 442.50  8.2079E+002
 443.00  8.2744E+002
 443.50  8.2771E+002
 444.00  8.2814E+002
 444.50  8.3133E+002
 445.00  8.3236E+002
 445.50  8.4061E+002
 446.00  8.5664E+002
 446.50  8.6151E+002
 447.00  8.5909E+002
 447.50  8.5704E+002
 448.00  8.5099E+002
 448.50  8.4678E+002
 449.00  8.5622E+002
 449.50  8.6530E+002
 450.00  8.6635E+002
 450.50  8.6693E+002
 451.00  8.6911E+002
 451.50  8.7035E+002
 452.00  8.7155E+002
 452.50  8.7001E+002
 453.00  8.6503E+002
 453.50  8.5700E+002
 454.00  8.4595E+002
 454.50  8.3781E+002
 455.00  8.3380E+002
 455.50  8.3127E+002
 456.00  8.2823E+002
 456.50  8.2619E+002
 457.00  8.3215E+002
 457.50  8.3939E+002
 458.00  8.3930E+002
 458.50  8.4317E+002
 459.00  8.4504E+002
 459.50  8.3623E+002
 460.00  8.3518E+002
 460.50  8.4147E+002
 461.00  8.4594E+002
 461.50  8.5356E+002
 462.00  8.6004E+002
 462.50  8.5328E+002
 463.00  8.4288E+002
 463.50  8.2984E+002
 464.00  8.2058E+002
 464.50  8.1908E+002
 465.00  8.2248E+002
 465.50  8.2420E+002
 466.00  8.2313E+002
 466.50  8.1645E+002
 467.00  8.0494E+002
 467.50  8.0148E+002
 468.00  8.0872E+002
 468.50  8.1715E+002
 469.00  8.2529E+002
 469.50  8.3360E+002
 470.00  8.3103E+002
 470.50  8.1858E+002
 471.00  8.0904E+002
 471.50  8.0133E+002
 472.00  7.9146E+002
 472.50  7.8893E+002
 473.00  7.9595E+002
 473.50  8.0713E+002
 474.00  8.2279E+002
 474.50  8.4040E+002
 475.00  8.5460E+002
 475.50  8.5867E+002
 476.00  8.5613E+002
 476.50  8.5416E+002
 477.00  8.5160E+002
 477.50  8.5267E+002
 478.00  8.5804E+002
 478.50  8.6072E+002
 479.00  8.6310E+002
 479.50  8.6820E+002
 480.00  8.6916E+002
 480.50  8.6922E+002
 481.00  8.7122E+002
 481.50  8.7017E+002
 482.00  8.6934E+002
 482.50  8.7761E+002
 483.00  8.8689E+002
 483.50  8.8709E+002
 484.00  8.8238E+002
 484.50  8.7398E+002
 485.00  8.5873E+002
 485.50  8.4474E+002
 486.00  8.4244E+002
 486.50  8.4245E+002
 487.00  8.3732E+002
 487.50  8.3092E+002
 488.00  8.2631E+002
 488.50  8.2440E+002
 489.00  8.2520E+002
 489.50  8.2775E+002
 490.00  8.2922E+002
 490.50  8.2461E+002
 491.00  8.0988E+002
 491.50  7.8843E+002
 492.00  7.7287E+002
 492.50  7.6181E+002
 493.00  7.5271E+002
 493.50  7.5843E+002
 494.00  7.7263E+002
 494.50  7.8210E+002
 495.00  8.0000E+002
 495.50  8.2095E+002
 496.00  8.2935E+002
 496.50  8.3420E+002
 497.00  8.3497E+002
 497.50  8.3104E+002
 498.00  8.2600E+002
 498.50  8.2180E+002
 499.00  8.2617E+002
 499.50  8.3410E+002
 500.00  8.3908E+002
 500.50  8.4637E+002
 501.00  8.5000E+002
 501.50  8.4393E+002
 502.00  8.3529E+002
 502.50  8.2808E+002
 503.00  8.2413E+002
 503.50  8.2783E+002
 504.00  8.3364E+002
 504.50  8.4015E+002
 505.00  8.4912E+002
 505.50  8.5584E+002
 506.00  8.5966E+002
 506.50  8.6070E+002
 507.00  8.6287E+002
 507.50  8.5912E+002
 508.00  8.5073E+002
 508.50  8.4570E+002
 509.00  8.4246E+002
 509.50  8.4267E+002
 510.00  8.5041E+002
 510.50  8.5866E+002
 511.00  8.6214E+002
 511.50  8.6115E+002
 512.00  8.5683E+002
 512.50  8.5546E+002
 513.00  8.6052E+002
 513.50  8.6545E+002
 514.00  8.6094E+002
 514.50  8.4877E+002
 515.00  8.4060E+002
 515.50  8.3512E+002
 516.00  8.2923E+002
 516.50  8.3127E+002
 517.00  8.3943E+002
 517.50  8.4311E+002
 518.00  8.4368E+002
 518.50  8.4347E+002
 519.00  8.4088E+002
 519.50  8.3700E+002
 520.00  8.3210E+002
 520.50  8.2938E+002
 521.00  8.2979E+002
 521.50  8.2559E+002
 522.00  8.2076E+002
 522.50  8.1674E+002
 523.00  8.1402E+002
 523.50  8.1043E+002
 524.00  8.0410E+002
 524.50  7.9828E+002
 525.00  7.9610E+002
 525.50  7.9856E+002
 526.00  8.0478E+002
 526.50  8.1218E+002
 527.00  8.2498E+002
 527.50  8.4144E+002
 528.00  8.5776E+002
 528.50  8.7574E+002
 529.00  8.8941E+002
 529.50  8.8892E+002
 530.00  8.8151E+002
 530.50  8.6984E+002
 531.00  8.5935E+002
 531.50  8.5566E+002
 532.00  8.5225E+002
 532.50  8.5035E+002
 533.00  8.5509E+002
 533.50  8.5640E+002
 534.00  8.5374E+002
 534.50  8.5687E+002
 535.00  8.5885E+002
 535.50  8.5330E+002
 536.00  8.4679E+002
 536.50  8.4646E+002
 537.00  8.4854E+002
 537.50  8.4644E+002
 538.00  8.4832E+002
 538.50  8.5065E+002
 539.00  8.4776E+002
 539.50  8.4471E+002
 540.00  8.4950E+002
 540.50  8.5693E+002
 541.00  8.5900E+002
 541.50  8.5752E+002
 542.00  8.5864E+002
 542.50  8.5081E+002
 543.00  8.3847E+002
 543.50  8.3538E+002
 544.00  8.2855E+002
 544.50  8.1648E+002
 545.00  8.0984E+002
 545.50  8.0760E+002
 546.00  8.0640E+002
 546.50  8.1123E+002
 547.00  8.1717E+002
 547.50  8.1816E+002
 548.00  8.1621E+002
 548.50  8.1705E+002
 549.00  8.2225E+002
 549.50  8.2603E+002
 550.00  8.2280E+002
 550.50  8.2334E+002
 551.00  8.2489E+002
 551.50  8.2514E+002
 552.00  8.3465E+002
 552.50  8.4877E+002
 553.00  8.5162E+002
 553.50  8.4581E+002
 554.00  8.4380E+002
 554.50  8.4549E+002
 555.00  8.5082E+002
 555.50  8.6285E+002
 556.00  8.6743E+002
 556.50  8.6086E+002
 557.00  8.5481E+002
 557.50  8.4898E+002
 558.00  8.4879E+002
 558.50  8.5715E+002
 559.00  8.6910E+002
 559.50  8.7890E+002
 560.00  8.8367E+002
 560.50  8.8591E+002
 561.00  8.7918E+002
 561.50  8.6270E+002
 562.00  8.5089E+002
 562.50  8.5076E+002
 563.00  8.5715E+002
 563.50  8.6553E+002
 564.00  8.7396E+002
 564.50  8.7947E+002
 565.00  8.7978E+002
 565.50  8.7650E+002
 566.00  8.6977E+002
 566.50  8.6212E+002
 567.00  8.5718E+002
 567.50  8.5535E+002
 568.00  8.6005E+002
 568.50  8.7229E+002
 569.00  8.8297E+002
 569.50  8.8290E+002
 570.00  8.7170E+002
 570.50  8.5879E+002
 571.00  8.5201E+002
 571.50  8.4879E+002
 572.00  8.4938E+002
 572.50  8.6214E+002
 573.00  8.7267E+002
 573.50  8.7496E+002
 574.00  8.7106E+002
 574.50  8.6708E+002
 575.00  8.5884E+002
 575.50  8.4981E+002
 576.00  8.4433E+002
 576.50  8.3839E+002
 577.00  8.2966E+002
 577.50  8.2299E+002
 578.00  8.2372E+002
 578.50  8.3100E+002
 579.00  8.4251E+002
 579.50  8.5722E+002
 580.00  8.6379E+002
 580.50  8.5890E+002
 581.00  8.5741E+002
 581.50  8.5666E+002
 582.00  8.5060E+002
 582.50  8.4489E+002
 583.00  8.4543E+002
 583.50  8.4877E+002
 584.00  8.5308E+002
 584.50  8.6270E+002
 585.00  8.7745E+002
 585.50  8.8846E+002
 586.00  8.8730E+002
 586.50  8.7864E+002
 587.00  8.7339E+002
 587.50  8.6855E+002
 588.00  8.6653E+002
 588.50  8.7917E+002
 589.00  8.9427E+002
 589.50  9.0156E+002
 590.00  9.0630E+002
 590.50  9.0624E+002
 591.00  8.9928E+002
 591.50  8.9515E+002
 592.00  8.8606E+002
 592.50  8.6925E+002
 593.00  8.6227E+002
 593.50  8.6510E+002
 594.00  8.6008E+002
 594.50  8.5677E+002
 595.00  8.6218E+002
 595.50  8.6650E+002
 596.00  8.6813E+002
 596.50  8.8026E+002
 597.00  8.9741E+002
 597.50  9.0708E+002
 598.00  9.1487E+002
 598.50  9.1698E+002
 599.00  9.0641E+002
 599.50  8.9336E+002
 600.00  8.8629E+002
 600.50  8.8370E+002
 601.00  8.9238E+002
 601.50  9.0806E+002
 602.00  9.1636E+002
 602.50  9.1435E+002
 603.00  9.0865E+002
 603.50  8.9295E+002
 604.00  8.7111E+002
 604.50  8.5703E+002
 605.00  8.4718E+002
 605.50  8.3181E+002
 606.00  8.2532E+002
 606.50  8.2849E+002
 607.00  8.2404E+002
 607.50  8.2651E+002
 608.00  8.3956E+002
 608.50  8.5039E+002
 609.00  8.6402E+002
 609.50  8.8121E+002
 610.00  8.9234E+002
 610.50  8.9903E+002
 611.00  9.0100E+002
 611.50  8.9418E+002
 612.00  8.8835E+002
 612.50  8.8975E+002
 613.00  8.9522E+002
 613.50  9.0721E+002
 614.00  9.2196E+002
 614.50  9.3152E+002
 615.00  9.3628E+002
 615.50  9.3611E+002
 616.00  9.3527E+002
 616.50  9.3463E+002
 617.00  9.2566E+002
 617.50  9.1649E+002
 618.00  9.1609E+002
 618.50  9.2122E+002
 619.00  9.2978E+002
 619.50  9.3453E+002
 620.00  9.2649E+002
 620.50  9.1547E+002
 621.00  9.0613E+002
 621.50  9.0176E+002
 622.00  9.0096E+002
 622.50  8.9846E+002
 623.00  8.9596E+002
 623.50  8.9486E+002
 624.00  8.9585E+002
 624.50  9.0062E+002
 625.00  9.0885E+002
 625.50  9.1312E+002
 626.00  9.1126E+002
 626.50  9.0873E+002
 627.00  9.0398E+002
 627.50  8.9639E+002
 628.00  8.9027E+002
 628.50  8.9220E+002
 629.00  9.0589E+002
 629.50  9.2443E+002
 630.00  9.4160E+002
 630.50  9.5550E+002
 631.00  9.5912E+002
 631.50  9.5476E+002
 632.00  9.4708E+002
 632.50  9.4214E+002
 633.00  9.3542E+002
 633.50  9.2741E+002
 634.00  9.3274E+002
 634.50  9.3984E+002
 635.00  9.5122E+002
 635.50  9.6708E+002
 636.00  9.7283E+002
 636.50  9.7005E+002
 637.00  9.6832E+002
 637.50  9.7202E+002
 638.00  9.8495E+002
 638.50  9.9997E+002
 639.00  1.0141E+003
 639.50  1.0282E+003
 640.00  1.0396E+003
 640.50  1.0513E+003
 641.00  1.0721E+003
 641.50  1.0907E+003
 642.00  1.1299E+003
 642.50  1.2173E+003
 643.00  1.3680E+003
 643.50  1.6142E+003
 644.00  1.9837E+003
 644.50  2.4753E+003
 645.00  3.1065E+003
 645.50  3.8788E+003
 646.00  4.7649E+003
 646.50  5.7591E+003
 647.00  6.8457E+003
 647.50  7.9521E+003
 648.00  9.0573E+003
 648.50  1.0147E+004
 649.00  1.1155E+004
 649.50  1.2050E+004
 650.00  1.2865E+004
 650.50  1.3580E+004
 651.00  1.4175E+004
 651.50  1.4672E+004
 652.00  1.5028E+004
 652.50  1.5133E+004
 653.00  1.4887E+004
 653.50  1.4243E+004
 654.00  1.3216E+004
 654.50  1.1850E+004
 655.00  1.0236E+004
 655.50  8.4950E+003
 656.00  6.7419E+003
 656.50  5.1157E+003
 657.00  3.7778E+003
 657.50  2.7650E+003
 658.00  2.0549E+003
 658.50  1.6075E+003
 659.00  1.3502E+003
 659.50  1.2064E+003
 660.00  1.1283E+003
 660.50  1.0856E+003
 661.00  1.0615E+003
 661.50  1.0507E+003
 662.00  1.0497E+003
 662.50  1.0548E+003
 663.00  1.0576E+003
 663.50  1.0568E+003
 664.00  1.0584E+003
 664.50  1.0518E+003
 665.00  1.0461E+003
 665.50  1.0347E+003
 666.00  1.0244E+003
 666.50  1.0311E+003
 667.00  1.0359E+003
 667.50  1.0388E+003
 668.00  1.0430E+003
 668.50  1.0318E+003
 669.00  1.0128E+003
 669.50  9.9840E+002
 670.00  9.8534E+002
 670.50  9.7623E+002
 671.00  9.7269E+002
 671.50  9.6872E+002
 672.00  9.6125E+002
 672.50  9.5890E+002
 673.00  9.6130E+002
 673.50  9.5954E+002
 674.00  9.5795E+002
 674.50  9.5449E+002
 675.00  9.4422E+002
 675.50  9.3504E+002
 676.00  9.3245E+002
 676.50  9.3461E+002
 677.00  9.3372E+002
 677.50  9.2951E+002
 678.00  9.2312E+002
 678.50  9.0983E+002
 679.00  9.0036E+002
 679.50  8.9455E+002
 680.00  8.8835E+002
 680.50  8.8917E+002
 681.00  8.9435E+002
 681.50  8.9895E+002
 682.00  9.0753E+002
 682.50  9.1064E+002
 683.00  9.0562E+002
 683.50  8.9462E+002
 684.00  8.8140E+002
 684.50  8.7800E+002
 685.00  8.7778E+002
 685.50  8.8063E+002
 686.00  8.8793E+002
 686.50  8.9050E+002
 687.00  8.9396E+002
 687.50  9.0016E+002
 688.00  8.9222E+002
 688.50  8.7717E+002
 689.00  8.6401E+002
 689.50  8.5019E+002
 690.00  8.4796E+002
 690.50  8.5739E+002
 691.00  8.6460E+002
 691.50  8.7315E+002
 692.00  8.8407E+002
 692.50  8.9139E+002
 693.00  8.9867E+002
 693.50  9.0521E+002
 694.00  9.1008E+002
 694.50  9.1637E+002
 695.00  9.2236E+002
 695.50  9.1973E+002
 696.00  9.1340E+002
 696.50  9.0513E+002
 697.00  8.8971E+002
 697.50  8.8252E+002
 698.00  8.7876E+002
 698.50  8.7345E+002
 699.00  8.7320E+002
 699.50  8.7700E+002
 700.00  8.8627E+002
 700.50  8.9572E+002
 701.00  8.9622E+002
 701.50  8.9176E+002
 702.00  8.8442E+002
 702.50  8.7408E+002
 703.00  8.6460E+002
 703.50  8.5599E+002
 704.00  8.4992E+002
 704.50  8.4972E+002
 705.00  8.5321E+002
 705.50  8.5898E+002
 706.00  8.6378E+002
 706.50  8.5834E+002
 707.00  8.5611E+002
 707.50  8.6068E+002
 708.00  8.6163E+002
 708.50  8.6359E+002
 709.00  8.6224E+002
 709.50  8.5838E+002
 710.00  8.5687E+002
 710.50  8.5453E+002
 711.00  8.5085E+002
 711.50  8.4725E+002
 712.00  8.5016E+002
 712.50  8.6037E+002
 713.00  8.7063E+002
 713.50  8.6867E+002
 714.00  8.6104E+002
 714.50  8.5877E+002
 715.00  8.5620E+002
 715.50  8.5902E+002
 716.00  8.6537E+002
 716.50  8.7350E+002
 717.00  8.8015E+002
 717.50  8.7875E+002
 718.00  8.8145E+002
 718.50  8.8443E+002
 719.00  8.8571E+002
 719.50  8.9599E+002
 720.00  9.0800E+002
 720.50  9.0570E+002
 721.00  8.9023E+002
 721.50  8.7415E+002
 722.00  8.6144E+002
 722.50  8.5225E+002
 723.00  8.4725E+002
 723.50  8.4892E+002
 724.00  8.5388E+002
 724.50  8.5733E+002
 725.00  8.6350E+002
 725.50  8.7331E+002
 726.00  8.8126E+002
 726.50  8.8732E+002
 727.00  8.8611E+002
 727.50  8.7355E+002
 728.00  8.5572E+002
 728.50  8.4655E+002
 729.00  8.5110E+002
 729.50  8.6497E+002
 730.00  8.7793E+002
 730.50  8.7742E+002
 731.00  8.6211E+002
 731.50  8.4506E+002
 732.00  8.3188E+002
 732.50  8.2550E+002
 733.00  8.2465E+002
 733.50  8.2366E+002
 734.00  8.2099E+002
 734.50  8.1321E+002
 735.00  8.1239E+002
 735.50  8.2163E+002
 736.00  8.3015E+002
 736.50  8.3883E+002
 737.00  8.4785E+002
 737.50  8.4749E+002
 738.00  8.5405E+002
 738.50  8.6701E+002
 739.00  8.6737E+002
 739.50  8.6394E+002
 740.00  8.5286E+002
 740.50  8.2869E+002
 741.00  8.1331E+002
 741.50  8.1489E+002
 742.00  8.2438E+002
 742.50  8.4435E+002
 743.00  8.7195E+002
 743.50  8.8739E+002
 744.00  8.9258E+002
 744.50  8.9873E+002
 745.00  9.0116E+002
 745.50  9.0221E+002
 746.00  8.9133E+002
 746.50  8.8160E+002
 747.00  8.7936E+002
 747.50  8.6675E+002
 748.00  8.6350E+002
 748.50  8.6359E+002
 749.00  8.5152E+002
 749.50  8.3807E+002
 750.00  8.4118E+002
 750.50  8.4827E+002
 751.00  8.5359E+002
 751.50  8.6250E+002
 752.00  8.6031E+002
 752.50  8.4748E+002
 753.00  8.4293E+002
 753.50  8.4600E+002
 754.00  8.5795E+002
 754.50  8.6841E+002
 755.00  8.6647E+002
 755.50  8.4841E+002
 756.00  8.3213E+002
 756.50  8.2034E+002
 757.00  8.1485E+002
 757.50  8.2676E+002
 758.00  8.3463E+002
 758.50  8.3731E+002
 759.00  8.3100E+002
 759.50  8.2134E+002
 760.00  8.1702E+002
 760.50  8.1702E+002
 761.00  8.2707E+002
 761.50  8.3888E+002
 762.00  8.4525E+002
 762.50  8.5023E+002
 763.00  8.6048E+002
 763.50  8.6840E+002
 764.00  8.6783E+002
 764.50  8.6580E+002
 765.00  8.5882E+002
 765.50  8.4988E+002
 766.00  8.4760E+002
 766.50  8.5334E+002
 767.00  8.4991E+002
 767.50  8.5051E+002
 768.00  8.6139E+002
 768.50  8.6405E+002
 769.00  8.6796E+002
 769.50  8.6775E+002
 770.00  8.6068E+002
 770.50  8.5716E+002
 771.00  8.6032E+002
 771.50  8.6582E+002
 772.00  8.6131E+002
 772.50  8.5583E+002
 773.00  8.4866E+002
 773.50  8.4040E+002
 774.00  8.4065E+002
 774.50  8.4525E+002
 775.00  8.5287E+002
 775.50  8.5782E+002
 776.00  8.5995E+002
 776.50  8.5713E+002
 777.00  8.4808E+002
 777.50  8.4519E+002
 778.00  8.4597E+002
 778.50  8.4462E+002
 779.00  8.4303E+002
 779.50  8.4413E+002
 780.00  8.4642E+002
 780.50  8.4837E+002
 781.00  8.4570E+002
 781.50  8.3480E+002
 782.00  8.2044E+002
 782.50  8.0971E+002
 783.00  8.1357E+002
 783.50  8.1780E+002
 784.00  8.1540E+002
 784.50  8.1133E+002
 785.00  8.1194E+002
 785.50  8.2159E+002
 786.00  8.3393E+002
 786.50  8.4429E+002
 787.00  8.4960E+002
 787.50  8.5064E+002
 788.00  8.5443E+002
 788.50  8.5106E+002
 789.00  8.4383E+002
 789.50  8.3949E+002
 790.00  8.3692E+002
 790.50  8.4771E+002
 791.00  8.6140E+002
 791.50  8.6636E+002
 792.00  8.6702E+002
 792.50  8.6022E+002
 793.00  8.5311E+002
 793.50  8.4692E+002
 794.00  8.4417E+002
 794.50  8.5407E+002
 795.00  8.6103E+002
 795.50  8.5995E+002
 796.00  8.5939E+002
 796.50  8.5344E+002
 797.00  8.4323E+002
 797.50  8.3468E+002
 798.00  8.3103E+002
 798.50  8.2619E+002
 799.00  8.2151E+002
 799.50  8.2611E+002
 800.00  8.4190E+002
 800.50  8.5511E+002
 801.00  8.6682E+002
 801.50  8.7127E+002
 802.00  8.5382E+002
 802.50  8.2796E+002
 803.00  8.1269E+002
 803.50  8.0538E+002
 804.00  8.0213E+002
 804.50  8.0496E+002
 805.00  8.0321E+002
 805.50  8.0016E+002
 806.00  7.9714E+002
 806.50  7.9423E+002
 807.00  7.9785E+002
 807.50  7.9572E+002
 808.00  8.0103E+002
 808.50  8.0942E+002
 809.00  8.2596E+002
 809.50  8.5163E+002
 810.00  8.7043E+002
 810.50  8.8491E+002
 811.00  8.8021E+002
 811.50  8.6763E+002
 812.00  8.6822E+002
 812.50  8.7328E+002
 813.00  8.7187E+002
 813.50  8.6205E+002
 814.00  8.4607E+002
 814.50  8.3153E+002
 815.00  8.2709E+002
 815.50  8.3847E+002
 816.00  8.4650E+002
 816.50  8.5612E+002
 817.00  8.7622E+002
 817.50  8.8741E+002
 818.00  8.8437E+002
 818.50  8.6916E+002
 819.00  8.4419E+002
 819.50  8.2058E+002
 820.00  8.1514E+002
 820.50  8.2397E+002
 821.00  8.3248E+002
 821.50  8.4490E+002
 822.00  8.5285E+002
 822.50  8.5486E+002
 823.00  8.5234E+002
 823.50  8.4321E+002
 824.00  8.3390E+002
 824.50  8.2290E+002
 825.00  8.1712E+002
 825.50  8.1731E+002
 826.00  8.1341E+002
 826.50  8.1180E+002
 827.00  8.1223E+002
 827.50  8.0946E+002
 828.00  8.1652E+002
 828.50  8.2279E+002
 829.00  8.2666E+002
 829.50  8.3237E+002
 830.00  8.3866E+002
 830.50  8.4647E+002
 831.00  8.5001E+002
 831.50  8.5161E+002
 832.00  8.4439E+002
 832.50  8.2480E+002
 833.00  7.9858E+002
 833.50  7.8499E+002
 834.00  7.7643E+002
 834.50  7.8147E+002
 835.00  8.0111E+002
 835.50  8.1292E+002
 836.00  8.2466E+002
 836.50  8.3659E+002
 837.00  8.4518E+002
 837.50  8.5288E+002
 838.00  8.5625E+002
 838.50  8.5924E+002
 839.00  8.6452E+002
 839.50  8.6832E+002
 840.00  8.6998E+002
 840.50  8.6056E+002
 841.00  8.4632E+002
 841.50  8.3936E+002
 842.00  8.4449E+002
 842.50  8.5356E+002
 843.00  8.6152E+002
 843.50  8.5997E+002
 844.00  8.4986E+002
 844.50  8.4393E+002
 845.00  8.4664E+002
 845.50  8.5567E+002
 846.00  8.5972E+002
 846.50  8.6030E+002
 847.00  8.5980E+002
 847.50  8.5334E+002
 848.00  8.5019E+002
 848.50  8.4659E+002
 849.00  8.3719E+002
 849.50  8.2463E+002
 850.00  8.2060E+002
 850.50  8.2673E+002
 851.00  8.2934E+002
 851.50  8.3480E+002
 852.00  8.4667E+002
 852.50  8.4938E+002
 853.00  8.5625E+002
 853.50  8.6730E+002
 854.00  8.5366E+002
 854.50  8.3902E+002
 855.00  8.3123E+002
 855.50  8.2435E+002
 856.00  8.3607E+002
 856.50  8.4739E+002
 857.00  8.4275E+002
 857.50  8.3666E+002
 858.00  8.3355E+002
 858.50  8.3910E+002
 859.00  8.4709E+002
 859.50  8.4952E+002
 860.00  8.3825E+002
 860.50  8.2406E+002
 861.00  8.1718E+002
 861.50  8.1982E+002
 862.00  8.2874E+002
 862.50  8.4310E+002
 863.00  8.5765E+002
 863.50  8.6079E+002
 864.00  8.6380E+002
 864.50  8.6062E+002
 865.00  8.5650E+002
 865.50  8.6017E+002
 866.00  8.6437E+002
 866.50  8.6488E+002
 867.00  8.6203E+002
 867.50  8.5451E+002
 868.00  8.4994E+002
 868.50  8.5142E+002
 869.00  8.6627E+002
 869.50  8.8070E+002
 870.00  8.9229E+002
 870.50  8.9280E+002
 871.00  8.7580E+002
 871.50  8.5652E+002
 872.00  8.3398E+002
 872.50  8.2862E+002
 873.00  8.3090E+002
 873.50  8.3286E+002
 874.00  8.4714E+002
 874.50  8.4867E+002
 875.00  8.3932E+002
 875.50  8.2366E+002
 876.00  8.0814E+002
 876.50  7.9740E+002
 877.00  8.0054E+002
 877.50  8.1289E+002
 878.00  8.1761E+002
 878.50  8.2090E+002
 879.00  8.2113E+002
 879.50  8.1574E+002
 880.00  8.0883E+002
 880.50  8.1070E+002
 881.00  8.2519E+002
 881.50  8.4788E+002
 882.00  8.7102E+002
 882.50  8.7937E+002
 883.00  8.8143E+002
 883.50  8.7002E+002
 884.00  8.6343E+002
 884.50  8.6327E+002
 885.00  8.5527E+002
 885.50  8.5141E+002
 886.00  8.5131E+002
 886.50  8.4750E+002
 887.00  8.5258E+002
 887.50  8.6419E+002
 888.00  8.6463E+002
 888.50  8.6383E+002
 889.00  8.6804E+002
 889.50  8.7239E+002
 890.00  8.8267E+002
 890.50  8.8964E+002
 891.00  8.7901E+002
 891.50  8.6819E+002
 892.00  8.5023E+002
 892.50  8.3687E+002
 893.00  8.2690E+002
 893.50  8.1817E+002
 894.00  8.3095E+002
 894.50  8.3991E+002
 895.00  8.4854E+002
 895.50  8.4953E+002
 896.00  8.4661E+002
 896.50  8.4986E+002
 897.00  8.4653E+002
 897.50  8.4521E+002
 898.00  8.3885E+002
 898.50  8.4321E+002
 899.00  8.5467E+002
 899.50  8.5210E+002
 900.00  8.4252E+002
 900.50  8.3043E+002
 901.00  8.1630E+002
 901.50  8.2780E+002
 902.00  8.4656E+002
 902.50  8.5345E+002
 903.00  8.6374E+002
 903.50  8.5547E+002
 904.00  8.5344E+002
 904.50  8.5342E+002
 905.00  8.5610E+002
 905.50  8.5799E+002
 906.00  8.4480E+002
 906.50  8.3843E+002
 907.00  8.3740E+002
 907.50  8.4351E+002
 908.00  8.6746E+002
 908.50  8.7990E+002
 909.00  8.7912E+002
 909.50  8.7428E+002
 910.00  8.6615E+002
 910.50  8.6478E+002
 911.00  8.6580E+002
 911.50  8.7400E+002
 912.00  8.7478E+002
 912.50  8.6281E+002
 913.00  8.5452E+002
 913.50  8.3707E+002
 914.00  8.2647E+002
 914.50  8.2347E+002
 915.00  8.1469E+002
 915.50  8.1533E+002
 916.00  8.2524E+002
 916.50  8.3762E+002
 917.00  8.4384E+002
 917.50  8.4702E+002
 918.00  8.4541E+002
 918.50  8.5057E+002
 919.00  8.5512E+002
 919.50  8.5206E+002
 920.00  8.5090E+002
 920.50  8.5072E+002
 921.00  8.4932E+002
 921.50  8.5042E+002
 922.00  8.4373E+002
 922.50  8.3058E+002
 923.00  8.1692E+002
 923.50  8.0456E+002
 924.00  8.0162E+002
 924.50  8.0762E+002
 925.00  8.3143E+002
 925.50  8.5359E+002
 926.00  8.6494E+002
 926.50  8.6815E+002
 927.00  8.5670E+002
 927.50  8.4504E+002
 928.00  8.3701E+002
 928.50  8.3779E+002
 929.00  8.4431E+002
 929.50  8.4671E+002
 930.00  8.4616E+002
 930.50  8.4039E+002
 931.00  8.3630E+002
 931.50  8.4226E+002
 932.00  8.4473E+002
 932.50  8.4476E+002
 933.00  8.4097E+002
 933.50  8.3516E+002
 934.00  8.3378E+002
 934.50  8.4438E+002
 935.00  8.6228E+002
 935.50  8.7798E+002
 936.00  8.7720E+002
 936.50  8.6289E+002
 937.00  8.4069E+002
 937.50  8.2760E+002
 938.00  8.2551E+002
 938.50  8.2429E+002
 939.00  8.2820E+002
 939.50  8.2735E+002
 940.00  8.2434E+002
 940.50  8.2891E+002
 941.00  8.2783E+002
 941.50  8.2838E+002
 942.00  8.2620E+002
 942.50  8.1949E+002
 943.00  8.1226E+002
 943.50  7.9925E+002
 944.00  7.8407E+002
 944.50  7.8283E+002
 945.00  7.9153E+002
 945.50  8.1655E+002
 946.00  8.3580E+002
 946.50  8.4797E+002
 947.00  8.4412E+002
 947.50  8.4075E+002
 948.00  8.4020E+002
 948.50  8.3562E+002
 949.00  8.3073E+002
 949.50  8.2334E+002
 950.00  8.1938E+002
 950.50  8.3236E+002
 951.00  8.4528E+002
 951.50  8.5404E+002
 952.00  8.5608E+002
 952.50  8.4945E+002
 953.00  8.5150E+002
 953.50  8.4888E+002
 954.00  8.5071E+002
 954.50  8.5012E+002
 955.00  8.5296E+002
 955.50  8.5307E+002
 956.00  8.4822E+002
 956.50  8.4234E+002
 957.00  8.4062E+002
 957.50  8.5275E+002
 958.00  8.5660E+002
 958.50  8.5626E+002
 959.00  8.4984E+002
 959.50  8.3769E+002
 960.00  8.2812E+002
 960.50  8.2826E+002
 961.00  8.2713E+002
 961.50  8.3065E+002
 962.00  8.2630E+002
 962.50  8.2388E+002
 963.00  8.2675E+002
 963.50  8.2681E+002
 964.00  8.3478E+002
 964.50  8.2962E+002
 965.00  8.3161E+002
 965.50  8.3318E+002
 966.00  8.3313E+002
 966.50  8.2925E+002
 967.00  8.2989E+002
 967.50  8.2431E+002
 968.00  8.1974E+002
 968.50  8.2692E+002
 969.00  8.3185E+002
 969.50  8.4276E+002
 970.00  8.5485E+002
 970.50  8.5219E+002
 971.00  8.5374E+002
 971.50  8.5184E+002
 972.00  8.4157E+002
 972.50  8.4340E+002
 973.00  8.4221E+002
 973.50  8.3688E+002
 974.00  8.3887E+002
 974.50  8.3286E+002
 975.00  8.2820E+002
 975.50  8.3095E+002
 976.00  8.2831E+002
 976.50  8.3882E+002
 977.00  8.4910E+002
 977.50  8.4793E+002
 978.00  8.5467E+002
 978.50  8.6549E+002
 979.00  8.6926E+002
 979.50  8.6508E+002
 980.00  8.4413E+002
 980.50  8.2586E+002
 981.00  8.2310E+002
 981.50  8.2815E+002
 982.00  8.2840E+002
 982.50  8.2931E+002
 983.00  8.3078E+002
 983.50  8.3338E+002
 984.00  8.4179E+002
 984.50  8.4872E+002
 985.00  8.5332E+002
 985.50  8.4933E+002
 986.00  8.3411E+002
 986.50  8.2038E+002
 987.00  8.1008E+002
 987.50  8.0700E+002
 988.00  8.0226E+002
 988.50  7.9942E+002
 989.00  8.0042E+002
 989.50  8.0801E+002
 990.00  8.2134E+002
 990.50  8.2374E+002
 991.00  8.1864E+002
 991.50  8.1552E+002
 992.00  8.1238E+002
 992.50  8.1902E+002
 993.00  8.2250E+002
 993.50  8.1820E+002
 994.00  8.2223E+002
 994.50  8.2400E+002
 995.00  8.2843E+002
 995.50  8.3484E+002
 996.00  8.3399E+002
 996.50  8.4466E+002
 997.00  8.5799E+002
 997.50  8.6575E+002
 998.00  8.6723E+002
 998.50  8.5712E+002
 999.00  8.3957E+002
 999.50  8.2262E+002
1000.00  8.0436E+002
1000.50  7.9899E+002
1001.00  7.9943E+002
1001.50  7.8934E+002
1002.00  7.8285E+002
1002.50  7.8478E+002
1003.00  7.9049E+002
1003.50  7.9509E+002
1004.00  7.9421E+002
1004.50  7.8595E+002
1005.00  7.9766E+002
1005.50  8.1182E+002
1006.00  8.2752E+002
1006.50  8.3267E+002
1007.00  8.2897E+002
1007.50  8.2391E+002
1008.00  8.2723E+002
1008.50  8.3598E+002
1009.00  8.3348E+002
1009.50  8.2920E+002
1010.00  8.2606E+002
1010.50  8.3896E+002
1011.00  8.6086E+002
1011.50  8.6835E+002
1012.00  8.6125E+002
1012.50  8.4291E+002
1013.00  8.2213E+002
1013.50  8.0624E+002
1014.00  8.0261E+002
1014.50  8.1087E+002
1015.00  8.3039E+002
1015.50  8.4402E+002
1016.00  8.3822E+002
1016.50  8.2739E+002
1017.00  8.2403E+002
1017.50  8.2555E+002
1018.00  8.4017E+002
1018.50  8.5511E+002
1019.00  8.6487E+002
1019.50  8.7720E+002
1020.00  8.6767E+002
1020.50  8.6264E+002
1021.00  8.5726E+002
1021.50  8.5964E+002
1022.00  8.6132E+002
1022.50  8.5572E+002
1023.00  8.4772E+002
1023.50  8.3603E+002
1024.00  8.2708E+002
1024.50  8.2536E+002
1025.00  8.3000E+002
1025.50  8.3088E+002
1026.00  8.2897E+002
1026.50  8.1237E+002
1027.00  8.0472E+002
1027.50  7.9520E+002
1028.00  7.9782E+002
1028.50  7.9863E+002
1029.00  8.0781E+002
1029.50  8.2240E+002
1030.00  8.3664E+002
1030.50  8.5107E+002
1031.00  8.5449E+002
1031.50  8.5141E+002
1032.00  8.4202E+002
1032.50  8.3079E+002
1033.00  8.2830E+002
1033.50  8.3332E+002
1034.00  8.3563E+002
1034.50  8.3220E+002
1035.00  8.2584E+002
1035.50  8.1700E+002
1036.00  8.2057E+002
1036.50  8.3163E+002
1037.00  8.4443E+002
1037.50  8.5708E+002
1038.00  8.6640E+002
1038.50  8.6899E+002
1039.00  8.7110E+002
1039.50  8.5958E+002
1040.00  8.5739E+002
1040.50  8.4895E+002
1041.00  8.3995E+002
1041.50  8.2429E+002
1042.00  8.0297E+002
1042.50  7.9867E+002
1043.00  8.1238E+002
1043.50  8.2872E+002
1044.00  8.4933E+002
1044.50  8.4488E+002
1045.00  8.3001E+002
1045.50  8.1272E+002
1046.00  7.9248E+002
1046.50  7.8727E+002
1047.00  7.8293E+002
1047.50  7.9307E+002
1048.00  8.0511E+002
1048.50  8.1260E+002
1049.00  8.1760E+002
1049.50  8.1393E+002
1050.00  8.1170E+002
1050.50  8.2003E+002
1051.00  8.2877E+002
1051.50  8.2898E+002
1052.00  8.2457E+002
1052.50  8.1963E+002
1053.00  8.2709E+002
1053.50  8.4328E+002
1054.00  8.4964E+002
1054.50  8.4743E+002
1055.00  8.5193E+002
1055.50  8.5140E+002
1056.00  8.4739E+002
1056.50  8.3719E+002
1057.00  8.3166E+002
1057.50  8.4379E+002
1058.00  8.6261E+002
1058.50  8.7117E+002
1059.00  8.6395E+002
1059.50  8.5671E+002
1060.00  8.4094E+002
1060.50  8.3736E+002
1061.00  8.2604E+002
1061.50  8.1715E+002
1062.00  8.0889E+002
1062.50  8.0423E+002
1063.00  8.1681E+002
1063.50  8.3198E+002
1064.00  8.4139E+002
1064.50  8.5001E+002
1065.00  8.5113E+002
1065.50  8.4029E+002
1066.00  8.3073E+002
1066.50  8.2222E+002
1067.00  8.2684E+002
1067.50  8.2252E+002
1068.00  8.1080E+002
1068.50  8.1028E+002
1069.00  8.1529E+002
1069.50  8.1935E+002
1070.00  8.0085E+002
1070.50  7.9351E+002
1071.00  8.0488E+002
1071.50  8.3141E+002
1072.00  8.5905E+002
1072.50  7.1798E+002
