" File: Users\LabUser\Documents\MonochromatorCal
"  SCOPE->  Wave:693.48nm  Pix:1050  Val:892.200  Time:1000ms  Avg:1  Sm:1  Sg:0  Tc:off  SNAP  Xt:3  Ch:1  Xtrig  
 191.00  9.4288E+002
 191.50  9.6780E+002
 192.00  9.6501E+002
 192.50  9.5942E+002
 193.00  9.6331E+002
 193.50  9.6639E+002
 194.00  9.5171E+002
 194.50  9.3608E+002
 195.00  9.2803E+002
 195.50  9.3075E+002
 196.00  9.4100E+002
 196.50  9.5511E+002
 197.00  9.6731E+002
 197.50  9.7263E+002
 198.00  9.7272E+002
 198.50  9.3421E+002
 199.00  8.7528E+002
 199.50  8.6500E+002
 200.00  8.7716E+002
 200.50  8.8583E+002
 201.00  8.9586E+002
 201.50  9.0318E+002
 202.00  8.9932E+002
 202.50  9.0345E+002
 203.00  9.1130E+002
 203.50  9.1449E+002
 204.00  9.1589E+002
 204.50  9.1854E+002
 205.00  9.1990E+002
 205.50  9.1875E+002
 206.00  9.2295E+002
 206.50  9.3550E+002
 207.00  9.4169E+002
 207.50  9.4375E+002
 208.00  9.4398E+002
 208.50  9.3667E+002
 209.00  9.2734E+002
 209.50  9.2505E+002
 210.00  9.2540E+002
 210.50  9.2681E+002
 211.00  9.3531E+002
 211.50  9.4806E+002
 212.00  9.5598E+002
 212.50  9.5702E+002
 213.00  9.5534E+002
 213.50  9.5209E+002
 214.00  9.4571E+002
 214.50  9.4115E+002
 215.00  9.3724E+002
 215.50  9.2803E+002
 216.00  9.1432E+002
 216.50  9.0866E+002
 217.00  9.0898E+002
 217.50  9.0950E+002
 218.00  9.1170E+002
 218.50  9.1439E+002
 219.00  9.1319E+002
 219.50  9.0700E+002
 220.00  9.0243E+002
 220.50  9.0387E+002
 221.00  9.0883E+002
 221.50  9.1463E+002
 222.00  9.1972E+002
 222.50  9.2323E+002
 223.00  9.2174E+002
 223.50  9.1649E+002
 224.00  9.1160E+002
 224.50  9.1046E+002
 225.00  9.0489E+002
 225.50  8.9787E+002
 226.00  8.9163E+002
 226.50  8.8775E+002
 227.00  8.8906E+002
 227.50  8.9847E+002
 228.00  9.1120E+002
 228.50  9.2455E+002
 229.00  9.3429E+002
 229.50  9.3635E+002
 230.00  9.3619E+002
 230.50  9.4070E+002
 231.00  9.4562E+002
 231.50  9.4273E+002
 232.00  9.3782E+002
 232.50  9.3209E+002
 233.00  9.1412E+002
 233.50  8.9690E+002
 234.00  8.8327E+002
 234.50  8.7775E+002
 235.00  8.7589E+002
 235.50  8.7840E+002
 236.00  8.7844E+002
 236.50  8.8620E+002
 237.00  9.0025E+002
 237.50  9.0437E+002
 238.00  8.9509E+002
 238.50  8.8529E+002
 239.00  8.8129E+002
 239.50  8.8048E+002
 240.00  8.8908E+002
 240.50  9.1228E+002
 241.00  9.3730E+002
 241.50  9.5614E+002
 242.00  9.6360E+002
 242.50  9.6350E+002
 243.00  9.5438E+002
 243.50  9.3744E+002
 244.00  9.1913E+002
 244.50  9.0863E+002
 245.00  9.0027E+002
 245.50  8.9323E+002
 246.00  8.9807E+002
 246.50  9.1370E+002
 247.00  9.2837E+002
 247.50  9.3585E+002
 248.00  9.3984E+002
 248.50  9.4195E+002
 249.00  9.3984E+002
 249.50  9.3642E+002
 250.00  9.3625E+002
 250.50  9.3773E+002
 251.00  9.3635E+002
 251.50  9.3316E+002
 252.00  9.2466E+002
 252.50  9.0891E+002
 253.00  9.0053E+002
 253.50  8.9777E+002
 254.00  8.9136E+002
 254.50  8.8333E+002
 255.00  8.8616E+002
 255.50  8.9367E+002
 256.00  8.9933E+002
 256.50  9.0635E+002
 257.00  9.1855E+002
 257.50  9.2691E+002
 258.00  9.2943E+002
 258.50  9.3384E+002
 259.00  9.3670E+002
 259.50  9.2900E+002
 260.00  9.1553E+002
 260.50  9.0335E+002
 261.00  8.8843E+002
 261.50  8.7469E+002
 262.00  8.7557E+002
 262.50  8.9220E+002
 263.00  9.1432E+002
 263.50  9.2698E+002
 264.00  9.2660E+002
 264.50  9.2336E+002
 265.00  9.1611E+002
 265.50  9.0240E+002
 266.00  9.0304E+002
 266.50  9.1814E+002
 267.00  9.2841E+002
 267.50  9.3367E+002
 268.00  9.3710E+002
 268.50  9.3095E+002
 269.00  9.1700E+002
 269.50  9.0723E+002
 270.00  9.0176E+002
 270.50  8.9851E+002
 271.00  9.0258E+002
 271.50  9.1214E+002
 272.00  9.1840E+002
 272.50  9.1909E+002
 273.00  9.1955E+002
 273.50  9.1592E+002
 274.00  9.0331E+002
 274.50  8.9573E+002
 275.00  9.0118E+002
 275.50  9.0704E+002
 276.00  9.0800E+002
 276.50  9.2261E+002
 277.00  9.4115E+002
 277.50  9.4563E+002
 278.00  9.5081E+002
 278.50  9.5653E+002
 279.00  9.5008E+002
 279.50  9.3756E+002
 280.00  9.3060E+002
 280.50  9.2208E+002
 281.00  9.1961E+002
 281.50  9.2689E+002
 282.00  9.3207E+002
 282.50  9.2903E+002
 283.00  9.2375E+002
 283.50  9.1898E+002
 284.00  9.1530E+002
 284.50  9.1688E+002
 285.00  9.2218E+002
 285.50  9.2600E+002
 286.00  9.2742E+002
 286.50  9.2688E+002
 287.00  9.2926E+002
 287.50  9.3372E+002
 288.00  9.3971E+002
 288.50  9.4312E+002
 289.00  9.4416E+002
 289.50  9.4378E+002
 290.00  9.4919E+002
 290.50  9.4959E+002
 291.00  9.4625E+002
 291.50  9.4816E+002
 292.00  9.4148E+002
 292.50  9.1842E+002
 293.00  8.9704E+002
 293.50  8.9311E+002
 294.00  8.9555E+002
 294.50  8.9865E+002
 295.00  9.0457E+002
 295.50  9.1288E+002
 296.00  9.1656E+002
 296.50  9.0942E+002
 297.00  8.9549E+002
 297.50  8.8449E+002
 298.00  8.7974E+002
 298.50  8.7516E+002
 299.00  8.6753E+002
 299.50  8.6241E+002
 300.00  8.6383E+002
 300.50  8.6660E+002
 301.00  8.6561E+002
 301.50  8.6957E+002
 302.00  8.7899E+002
 302.50  8.8734E+002
 303.00  8.8901E+002
 303.50  8.9121E+002
 304.00  8.9337E+002
 304.50  8.9310E+002
 305.00  8.9263E+002
 305.50  8.9874E+002
 306.00  9.1056E+002
 306.50  9.1989E+002
 307.00  9.2923E+002
 307.50  9.3744E+002
 308.00  9.3492E+002
 308.50  9.2545E+002
 309.00  9.1430E+002
 309.50  9.1128E+002
 310.00  9.2044E+002
 310.50  9.3720E+002
 311.00  9.5487E+002
 311.50  9.6706E+002
 312.00  9.7139E+002
 312.50  9.6958E+002
 313.00  9.6737E+002
 313.50  9.6842E+002
 314.00  9.7513E+002
 314.50  9.8255E+002
 315.00  9.8838E+002
 315.50  9.9383E+002
 316.00  9.9331E+002
 316.50  9.8355E+002
 317.00  9.7141E+002
 317.50  9.5952E+002
 318.00  9.4436E+002
 318.50  9.3163E+002
 319.00  9.2751E+002
 319.50  9.2525E+002
 320.00  9.2324E+002
 320.50  9.2902E+002
 321.00  9.3384E+002
 321.50  9.2861E+002
 322.00  9.2794E+002
 322.50  9.3445E+002
 323.00  9.2410E+002
 323.50  9.0383E+002
 324.00  8.9883E+002
 324.50  8.9774E+002
 325.00  8.8848E+002
 325.50  8.9026E+002
 326.00  9.0304E+002
 326.50  9.0675E+002
 327.00  9.0035E+002
 327.50  8.9780E+002
 328.00  8.8938E+002
 328.50  8.8057E+002
 329.00  8.6234E+002
 329.50  8.4646E+002
 330.00  8.3996E+002
 330.50  8.3463E+002
 331.00  8.3054E+002
 331.50  8.4271E+002
 332.00  8.6475E+002
 332.50  8.7448E+002
 333.00  8.7818E+002
 333.50  8.8206E+002
 334.00  8.8543E+002
 334.50  8.8486E+002
 335.00  8.8672E+002
 335.50  8.9696E+002
 336.00  9.1133E+002
 336.50  9.2588E+002
 337.00  9.3694E+002
 337.50  9.4046E+002
 338.00  9.2814E+002
 338.50  9.0288E+002
 339.00  8.7759E+002
 339.50  8.6271E+002
 340.00  8.6176E+002
 340.50  8.7464E+002
 341.00  8.9432E+002
 341.50  9.1273E+002
 342.00  9.2908E+002
 342.50  9.4008E+002
 343.00  9.6052E+002
 343.50  1.0025E+003
 344.00  1.0364E+003
 344.50  1.0446E+003
 345.00  1.0443E+003
 345.50  1.0306E+003
 346.00  9.9097E+002
 346.50  9.5418E+002
 347.00  9.4035E+002
 347.50  9.3793E+002
 348.00  9.3809E+002
 348.50  9.3839E+002
 349.00  9.3820E+002
 349.50  9.3744E+002
 350.00  9.3087E+002
 350.50  9.2120E+002
 351.00  9.2300E+002
 351.50  9.3310E+002
 352.00  9.3922E+002
 352.50  9.4110E+002
 353.00  9.4420E+002
 353.50  9.4037E+002
 354.00  9.3256E+002
 354.50  9.2490E+002
 355.00  9.1146E+002
 355.50  8.9809E+002
 356.00  8.9372E+002
 356.50  8.9348E+002
 357.00  8.9463E+002
 357.50  8.9964E+002
 358.00  9.0613E+002
 358.50  9.0861E+002
 359.00  9.0649E+002
 359.50  8.9977E+002
 360.00  8.9693E+002
 360.50  8.9345E+002
 361.00  8.8011E+002
 361.50  8.6949E+002
 362.00  8.7053E+002
 362.50  8.7343E+002
 363.00  8.7636E+002
 363.50  8.8669E+002
 364.00  9.0327E+002
 364.50  9.2427E+002
 365.00  9.3933E+002
 365.50  9.4875E+002
 366.00  9.5558E+002
 366.50  9.5167E+002
 367.00  9.3707E+002
 367.50  9.2526E+002
 368.00  9.2259E+002
 368.50  9.1850E+002
 369.00  9.1673E+002
 369.50  9.2469E+002
 370.00  9.4611E+002
 370.50  9.5933E+002
 371.00  9.6306E+002
 371.50  9.6472E+002
 372.00  9.6151E+002
 372.50  9.4394E+002
 373.00  9.2659E+002
 373.50  9.2601E+002
 374.00  9.2628E+002
 374.50  9.2103E+002
 375.00  9.2257E+002
 375.50  9.3117E+002
 376.00  9.2966E+002
 376.50  9.3310E+002
 377.00  9.3868E+002
 377.50  9.3176E+002
 378.00  9.2974E+002
 378.50  9.3721E+002
 379.00  9.3762E+002
 379.50  9.3881E+002
 380.00  9.4931E+002
 380.50  9.5462E+002
 381.00  9.6440E+002
 381.50  9.7269E+002
 382.00  9.6839E+002
 382.50  9.6088E+002
 383.00  9.5669E+002
 383.50  9.4679E+002
 384.00  9.3503E+002
 384.50  9.3051E+002
 385.00  9.2810E+002
 385.50  9.2132E+002
 386.00  9.1972E+002
 386.50  9.2209E+002
 387.00  9.2367E+002
 387.50  9.2463E+002
 388.00  9.2069E+002
 388.50  9.0088E+002
 389.00  8.8312E+002
 389.50  8.7670E+002
 390.00  8.7090E+002
 390.50  8.7040E+002
 391.00  8.7690E+002
 391.50  8.8326E+002
 392.00  9.0004E+002
 392.50  9.1962E+002
 393.00  9.2975E+002
 393.50  9.3587E+002
 394.00  9.3843E+002
 394.50  9.2265E+002
 395.00  9.0196E+002
 395.50  8.9078E+002
 396.00  8.7886E+002
 396.50  8.6631E+002
 397.00  8.5852E+002
 397.50  8.6158E+002
 398.00  8.7021E+002
 398.50  8.7945E+002
 399.00  8.8931E+002
 399.50  9.0019E+002
 400.00  9.0150E+002
 400.50  8.9436E+002
 401.00  8.9719E+002
 401.50  9.1001E+002
 402.00  9.1751E+002
 402.50  9.2423E+002
 403.00  9.3399E+002
 403.50  9.3439E+002
 404.00  9.2332E+002
 404.50  9.1712E+002
 405.00  9.2076E+002
 405.50  9.2483E+002
 406.00  9.2745E+002
 406.50  9.3127E+002
 407.00  9.3417E+002
 407.50  9.3636E+002
 408.00  9.3755E+002
 408.50  9.3644E+002
 409.00  9.3768E+002
 409.50  9.4258E+002
 410.00  9.4342E+002
 410.50  9.4170E+002
 411.00  9.4377E+002
 411.50  9.4215E+002
 412.00  9.2933E+002
 412.50  9.1405E+002
 413.00  9.0402E+002
 413.50  8.9709E+002
 414.00  8.9463E+002
 414.50  9.0291E+002
 415.00  9.1685E+002
 415.50  9.2647E+002
 416.00  9.3042E+002
 416.50  9.2962E+002
 417.00  9.1770E+002
 417.50  8.9950E+002
 418.00  8.9337E+002
 418.50  8.9480E+002
 419.00  8.9093E+002
 419.50  8.9276E+002
 420.00  8.9489E+002
 420.50  8.8178E+002
 421.00  8.7530E+002
 421.50  8.9114E+002
 422.00  9.0243E+002
 422.50  9.0432E+002
 423.00  9.0494E+002
 423.50  8.9771E+002
 424.00  8.8620E+002
 424.50  8.8179E+002
 425.00  8.8840E+002
 425.50  9.0168E+002
 426.00  9.1004E+002
 426.50  9.1346E+002
 427.00  9.2167E+002
 427.50  9.3001E+002
 428.00  9.2988E+002
 428.50  9.2657E+002
 429.00  9.2400E+002
 429.50  9.1839E+002
 430.00  9.1648E+002
 430.50  9.2482E+002
 431.00  9.3550E+002
 431.50  9.3625E+002
 432.00  9.3400E+002
 432.50  9.3524E+002
 433.00  9.3414E+002
 433.50  9.3766E+002
 434.00  9.4805E+002
 434.50  9.4994E+002
 435.00  9.4314E+002
 435.50  9.3667E+002
 436.00  9.2715E+002
 436.50  9.1637E+002
 437.00  9.1240E+002
 437.50  9.1251E+002
 438.00  9.1203E+002
 438.50  9.1196E+002
 439.00  9.1480E+002
 439.50  9.2014E+002
 440.00  9.2583E+002
 440.50  9.3137E+002
 441.00  9.3982E+002
 441.50  9.4315E+002
 442.00  9.3045E+002
 442.50  9.1194E+002
 443.00  8.9554E+002
 443.50  8.7901E+002
 444.00  8.7216E+002
 444.50  8.7804E+002
 445.00  8.8619E+002
 445.50  8.9110E+002
 446.00  8.9807E+002
 446.50  9.0885E+002
 447.00  9.2179E+002
 447.50  9.3659E+002
 448.00  9.4463E+002
 448.50  9.4994E+002
 449.00  9.5586E+002
 449.50  9.5860E+002
 450.00  9.5535E+002
 450.50  9.5690E+002
 451.00  9.5416E+002
 451.50  9.4109E+002
 452.00  9.3238E+002
 452.50  9.2880E+002
 453.00  9.2174E+002
 453.50  9.1539E+002
 454.00  9.0735E+002
 454.50  8.9144E+002
 455.00  8.8320E+002
 455.50  8.9045E+002
 456.00  9.0043E+002
 456.50  9.1777E+002
 457.00  9.4624E+002
 457.50  9.6556E+002
 458.00  9.7416E+002
 458.50  9.8175E+002
 459.00  9.7881E+002
 459.50  9.6499E+002
 460.00  9.5863E+002
 460.50  9.5592E+002
 461.00  9.7178E+002
 461.50  9.9867E+002
 462.00  1.0205E+003
 462.50  1.0380E+003
 463.00  1.0398E+003
 463.50  1.0103E+003
 464.00  9.7969E+002
 464.50  9.7537E+002
 465.00  9.7043E+002
 465.50  9.6478E+002
 466.00  9.7025E+002
 466.50  9.7694E+002
 467.00  9.6475E+002
 467.50  9.4349E+002
 468.00  9.2990E+002
 468.50  9.2090E+002
 469.00  9.0465E+002
 469.50  8.9173E+002
 470.00  8.8524E+002
 470.50  8.8169E+002
 471.00  8.7784E+002
 471.50  8.7601E+002
 472.00  8.7913E+002
 472.50  8.8960E+002
 473.00  8.9815E+002
 473.50  9.0780E+002
 474.00  9.1939E+002
 474.50  9.2642E+002
 475.00  9.2673E+002
 475.50  9.2398E+002
 476.00  9.2527E+002
 476.50  9.2594E+002
 477.00  9.2986E+002
 477.50  9.3933E+002
 478.00  9.4210E+002
 478.50  9.3744E+002
 479.00  9.3030E+002
 479.50  9.2084E+002
 480.00  9.1944E+002
 480.50  9.3014E+002
 481.00  9.4311E+002
 481.50  9.5474E+002
 482.00  9.6540E+002
 482.50  9.6258E+002
 483.00  9.4967E+002
 483.50  9.4563E+002
 484.00  9.4416E+002
 484.50  9.4307E+002
 485.00  9.4476E+002
 485.50  9.4138E+002
 486.00  9.3303E+002
 486.50  9.3424E+002
 487.00  9.4346E+002
 487.50  9.6371E+002
 488.00  9.8665E+002
 488.50  9.9800E+002
 489.00  9.8892E+002
 489.50  9.6800E+002
 490.00  9.4776E+002
 490.50  9.3248E+002
 491.00  9.3043E+002
 491.50  9.4567E+002
 492.00  9.6356E+002
 492.50  9.7292E+002
 493.00  9.8449E+002
 493.50  9.9621E+002
 494.00  9.9716E+002
 494.50  1.0105E+003
 495.00  1.0501E+003
 495.50  1.0992E+003
 496.00  1.1823E+003
 496.50  1.3377E+003
 497.00  1.5651E+003
 497.50  1.8821E+003
 498.00  2.3105E+003
 498.50  2.8392E+003
 499.00  3.4208E+003
 499.50  3.9761E+003
 500.00  4.4268E+003
 500.50  4.7003E+003
 501.00  4.7436E+003
 501.50  4.5551E+003
 502.00  4.1780E+003
 502.50  3.6671E+003
 503.00  3.0896E+003
 503.50  2.5242E+003
 504.00  2.0387E+003
 504.50  1.6636E+003
 505.00  1.4068E+003
 505.50  1.2573E+003
 506.00  1.1694E+003
 506.50  1.1070E+003
 507.00  1.0701E+003
 507.50  1.0478E+003
 508.00  1.0262E+003
 508.50  1.0104E+003
 509.00  9.9718E+002
 509.50  9.8087E+002
 510.00  9.6772E+002
 510.50  9.6530E+002
 511.00  9.7250E+002
 511.50  9.7994E+002
 512.00  9.9001E+002
 512.50  9.9971E+002
 513.00  9.9568E+002
 513.50  9.8624E+002
 514.00  9.8248E+002
 514.50  9.7781E+002
 515.00  9.6512E+002
 515.50  9.5271E+002
 516.00  9.3941E+002
 516.50  9.2699E+002
 517.00  9.2727E+002
 517.50  9.4027E+002
 518.00  9.5712E+002
 518.50  9.7513E+002
 519.00  9.8768E+002
 519.50  9.8215E+002
 520.00  9.6652E+002
 520.50  9.5466E+002
 521.00  9.4340E+002
 521.50  9.4593E+002
 522.00  9.6767E+002
 522.50  9.8723E+002
 523.00  9.9497E+002
 523.50  1.0003E+003
 524.00  9.9320E+002
 524.50  9.7977E+002
 525.00  9.7360E+002
 525.50  9.7500E+002
 526.00  9.7340E+002
 526.50  9.6983E+002
 527.00  9.8548E+002
 527.50  1.0130E+003
 528.00  1.0174E+003
 528.50  1.0094E+003
 529.00  9.9807E+002
 529.50  9.6836E+002
 530.00  9.3837E+002
 530.50  9.2870E+002
 531.00  9.2812E+002
 531.50  9.2726E+002
 532.00  9.2252E+002
 532.50  9.1707E+002
 533.00  9.1055E+002
 533.50  9.0288E+002
 534.00  8.9510E+002
 534.50  8.8465E+002
 535.00  8.8155E+002
 535.50  8.8975E+002
 536.00  8.9496E+002
 536.50  8.9376E+002
 537.00  9.0245E+002
 537.50  9.0861E+002
 538.00  9.0806E+002
 538.50  9.1057E+002
 539.00  9.1422E+002
 539.50  9.1231E+002
 540.00  9.1116E+002
 540.50  9.1925E+002
 541.00  9.3216E+002
 541.50  9.3619E+002
 542.00  9.3532E+002
 542.50  9.3637E+002
 543.00  9.2643E+002
 543.50  9.2055E+002
 544.00  9.3057E+002
 544.50  9.3962E+002
 545.00  9.4329E+002
 545.50  9.4214E+002
 546.00  9.3414E+002
 546.50  9.2434E+002
 547.00  9.1849E+002
 547.50  9.1867E+002
 548.00  9.2164E+002
 548.50  9.2827E+002
 549.00  9.3249E+002
 549.50  9.3108E+002
 550.00  9.2913E+002
 550.50  9.3252E+002
 551.00  9.3794E+002
 551.50  9.4402E+002
 552.00  9.5361E+002
 552.50  9.5545E+002
 553.00  9.3989E+002
 553.50  9.1802E+002
 554.00  9.0061E+002
 554.50  8.8161E+002
 555.00  8.7583E+002
 555.50  8.8476E+002
 556.00  9.0094E+002
 556.50  9.1044E+002
 557.00  9.0991E+002
 557.50  9.0364E+002
 558.00  9.0319E+002
 558.50  9.1175E+002
 559.00  9.3296E+002
 559.50  9.6146E+002
 560.00  9.7589E+002
 560.50  9.6991E+002
 561.00  9.5879E+002
 561.50  9.5215E+002
 562.00  9.4603E+002
 562.50  9.4169E+002
 563.00  9.3835E+002
 563.50  9.3443E+002
 564.00  9.2374E+002
 564.50  9.2296E+002
 565.00  9.3219E+002
 565.50  9.2997E+002
 566.00  9.2302E+002
 566.50  9.1659E+002
 567.00  8.9725E+002
 567.50  8.8387E+002
 568.00  8.9041E+002
 568.50  8.9647E+002
 569.00  9.0892E+002
 569.50  9.2167E+002
 570.00  9.1932E+002
 570.50  9.1422E+002
 571.00  9.1287E+002
 571.50  9.1059E+002
 572.00  9.1490E+002
 572.50  9.2347E+002
 573.00  9.2384E+002
 573.50  9.1760E+002
 574.00  9.1443E+002
 574.50  9.1356E+002
 575.00  9.1378E+002
 575.50  9.1867E+002
 576.00  9.2559E+002
 576.50  9.2473E+002
 577.00  9.1635E+002
 577.50  9.1557E+002
 578.00  9.2451E+002
 578.50  9.3736E+002
 579.00  9.5766E+002
 579.50  9.7174E+002
 580.00  9.6781E+002
 580.50  9.6130E+002
 581.00  9.5490E+002
 581.50  9.4363E+002
 582.00  9.3408E+002
 582.50  9.2434E+002
 583.00  9.1095E+002
 583.50  9.0643E+002
 584.00  9.1038E+002
 584.50  9.1609E+002
 585.00  9.2523E+002
 585.50  9.2736E+002
 586.00  9.2134E+002
 586.50  9.1714E+002
 587.00  9.1325E+002
 587.50  9.1118E+002
 588.00  9.1725E+002
 588.50  9.2342E+002
 589.00  9.3092E+002
 589.50  9.3513E+002
 590.00  9.3051E+002
 590.50  9.1811E+002
 591.00  9.1072E+002
 591.50  9.0517E+002
 592.00  9.0293E+002
 592.50  9.0842E+002
 593.00  9.1243E+002
 593.50  9.0736E+002
 594.00  8.9377E+002
 594.50  8.8320E+002
 595.00  8.8448E+002
 595.50  8.8848E+002
 596.00  8.9327E+002
 596.50  8.9755E+002
 597.00  8.8938E+002
 597.50  8.8052E+002
 598.00  8.8297E+002
 598.50  8.9344E+002
 599.00  9.1306E+002
 599.50  9.4398E+002
 600.00  9.6863E+002
 600.50  9.8215E+002
 601.00  9.8182E+002
 601.50  9.6173E+002
 602.00  9.3829E+002
 602.50  9.2355E+002
 603.00  9.1264E+002
 603.50  9.1382E+002
 604.00  9.2512E+002
 604.50  9.3509E+002
 605.00  9.3923E+002
 605.50  9.4019E+002
 606.00  9.4044E+002
 606.50  9.3268E+002
 607.00  9.1749E+002
 607.50  9.0645E+002
 608.00  9.0320E+002
 608.50  9.0329E+002
 609.00  9.0375E+002
 609.50  9.0411E+002
 610.00  9.0337E+002
 610.50  9.0019E+002
 611.00  9.0242E+002
 611.50  9.0445E+002
 612.00  8.9610E+002
 612.50  8.8469E+002
 613.00  8.6866E+002
 613.50  8.5447E+002
 614.00  8.5464E+002
 614.50  8.6561E+002
 615.00  8.8245E+002
 615.50  8.9917E+002
 616.00  9.1185E+002
 616.50  9.2227E+002
 617.00  9.3251E+002
 617.50  9.3660E+002
 618.00  9.2967E+002
 618.50  9.2021E+002
 619.00  9.0518E+002
 619.50  8.8938E+002
 620.00  8.8140E+002
 620.50  8.8332E+002
 621.00  8.9640E+002
 621.50  9.1660E+002
 622.00  9.4029E+002
 622.50  9.5789E+002
 623.00  9.6003E+002
 623.50  9.5239E+002
 624.00  9.4313E+002
 624.50  9.3963E+002
 625.00  9.4628E+002
 625.50  9.5770E+002
 626.00  9.5865E+002
 626.50  9.5192E+002
 627.00  9.4312E+002
 627.50  9.3165E+002
 628.00  9.2386E+002
 628.50  9.2430E+002
 629.00  9.2248E+002
 629.50  9.2400E+002
 630.00  9.4132E+002
 630.50  9.7971E+002
 631.00  1.0153E+003
 631.50  1.0244E+003
 632.00  1.0112E+003
 632.50  9.7584E+002
 633.00  9.2314E+002
 633.50  8.9442E+002
 634.00  8.9404E+002
 634.50  9.0019E+002
 635.00  9.0828E+002
 635.50  9.1779E+002
 636.00  9.2629E+002
 636.50  9.2705E+002
 637.00  9.1957E+002
 637.50  9.1419E+002
 638.00  9.1075E+002
 638.50  9.1127E+002
 639.00  9.2260E+002
 639.50  9.4813E+002
 640.00  9.5530E+002
 640.50  9.4492E+002
 641.00  9.4544E+002
 641.50  9.3136E+002
 642.00  9.1460E+002
 642.50  9.3147E+002
 643.00  9.5435E+002
 643.50  9.6416E+002
 644.00  9.6613E+002
 644.50  9.5931E+002
 645.00  9.3727E+002
 645.50  9.1068E+002
 646.00  9.0245E+002
 646.50  9.1821E+002
 647.00  9.3264E+002
 647.50  9.4415E+002
 648.00  9.6325E+002
 648.50  9.6344E+002
 649.00  9.4262E+002
 649.50  9.3395E+002
 650.00  9.2510E+002
 650.50  9.3125E+002
 651.00  9.4638E+002
 651.50  9.5734E+002
 652.00  9.6385E+002
 652.50  9.4566E+002
 653.00  9.1387E+002
 653.50  9.1396E+002
 654.00  9.2308E+002
 654.50  9.2692E+002
 655.00  9.2791E+002
 655.50  9.2297E+002
 656.00  9.1080E+002
 656.50  9.0574E+002
 657.00  9.1343E+002
 657.50  9.2136E+002
 658.00  9.2081E+002
 658.50  9.1785E+002
 659.00  9.1572E+002
 659.50  9.1332E+002
 660.00  9.0645E+002
 660.50  9.0549E+002
 661.00  9.0918E+002
 661.50  9.0551E+002
 662.00  9.0506E+002
 662.50  9.0376E+002
 663.00  8.9255E+002
 663.50  8.9412E+002
 664.00  9.0391E+002
 664.50  9.1888E+002
 665.00  9.3932E+002
 665.50  9.4438E+002
 666.00  9.3866E+002
 666.50  9.2714E+002
 667.00  9.0913E+002
 667.50  9.0118E+002
 668.00  9.0116E+002
 668.50  9.0425E+002
 669.00  9.1091E+002
 669.50  9.1489E+002
 670.00  9.2257E+002
 670.50  9.3436E+002
 671.00  9.4571E+002
 671.50  9.5666E+002
 672.00  9.6551E+002
 672.50  9.6872E+002
 673.00  9.6629E+002
 673.50  9.5393E+002
 674.00  9.4312E+002
 674.50  9.3985E+002
 675.00  9.4015E+002
 675.50  9.4997E+002
 676.00  9.6549E+002
 676.50  9.7625E+002
 677.00  9.7522E+002
 677.50  9.6236E+002
 678.00  9.4544E+002
 678.50  9.2858E+002
 679.00  9.2241E+002
 679.50  9.2396E+002
 680.00  9.3041E+002
 680.50  9.3356E+002
 681.00  9.2705E+002
 681.50  9.2779E+002
 682.00  9.3934E+002
 682.50  9.4448E+002
 683.00  9.4201E+002
 683.50  9.3597E+002
 684.00  9.2588E+002
 684.50  9.1741E+002
 685.00  9.2215E+002
 685.50  9.2890E+002
 686.00  9.2528E+002
 686.50  9.2243E+002
 687.00  9.2358E+002
 687.50  9.1766E+002
 688.00  9.2072E+002
 688.50  9.2921E+002
 689.00  9.2896E+002
 689.50  9.2332E+002
 690.00  9.2351E+002
 690.50  9.1646E+002
 691.00  9.0430E+002
 691.50  9.0340E+002
 692.00  9.0509E+002
 692.50  9.0061E+002
 693.00  8.9529E+002
 693.50  8.9226E+002
 694.00  8.9462E+002
 694.50  9.0544E+002
 695.00  9.2144E+002
 695.50  9.2953E+002
 696.00  9.3545E+002
 696.50  9.3139E+002
 697.00  9.2064E+002
 697.50  9.2046E+002
 698.00  9.1685E+002
 698.50  9.1427E+002
 699.00  9.1590E+002
 699.50  9.1860E+002
 700.00  9.2406E+002
 700.50  9.2831E+002
 701.00  9.3299E+002
 701.50  9.3380E+002
 702.00  9.2951E+002
 702.50  9.2443E+002
 703.00  9.1630E+002
 703.50  9.0706E+002
 704.00  9.0693E+002
 704.50  9.2288E+002
 705.00  9.4002E+002
 705.50  9.5833E+002
 706.00  9.6588E+002
 706.50  9.5920E+002
 707.00  9.5389E+002
 707.50  9.5260E+002
 708.00  9.6404E+002
 708.50  9.7880E+002
 709.00  9.7711E+002
 709.50  9.6589E+002
 710.00  9.5142E+002
 710.50  9.4260E+002
 711.00  9.4519E+002
 711.50  9.4994E+002
 712.00  9.4646E+002
 712.50  9.3536E+002
 713.00  9.2508E+002
 713.50  9.2399E+002
 714.00  9.3167E+002
 714.50  9.4160E+002
 715.00  9.4415E+002
 715.50  9.4631E+002
 716.00  9.5125E+002
 716.50  9.5114E+002
 717.00  9.5231E+002
 717.50  9.5328E+002
 718.00  9.3916E+002
 718.50  9.3098E+002
 719.00  9.3002E+002
 719.50  9.2218E+002
 720.00  9.2066E+002
 720.50  9.2374E+002
 721.00  9.1589E+002
 721.50  9.1204E+002
 722.00  9.1284E+002
 722.50  9.1191E+002
 723.00  9.1004E+002
 723.50  9.0728E+002
 724.00  9.0375E+002
 724.50  9.0257E+002
 725.00  9.0866E+002
 725.50  9.2841E+002
 726.00  9.4039E+002
 726.50  9.4697E+002
 727.00  9.4806E+002
 727.50  9.4146E+002
 728.00  9.3582E+002
 728.50  9.3554E+002
 729.00  9.4113E+002
 729.50  9.5047E+002
 730.00  9.6062E+002
 730.50  9.6590E+002
 731.00  9.6803E+002
 731.50  9.7345E+002
 732.00  9.7303E+002
 732.50  9.7543E+002
 733.00  9.7475E+002
 733.50  9.6407E+002
 734.00  9.6287E+002
 734.50  9.6079E+002
 735.00  9.5241E+002
 735.50  9.4966E+002
 736.00  9.4890E+002
 736.50  9.5220E+002
 737.00  9.6252E+002
 737.50  9.6974E+002
 738.00  9.7560E+002
 738.50  9.6976E+002
 739.00  9.5076E+002
 739.50  9.2809E+002
 740.00  9.0333E+002
 740.50  8.8141E+002
 741.00  8.7464E+002
 741.50  8.8196E+002
 742.00  8.9577E+002
 742.50  9.1676E+002
 743.00  9.4119E+002
 743.50  9.5818E+002
 744.00  9.5086E+002
 744.50  9.3227E+002
 745.00  9.1533E+002
 745.50  8.9692E+002
 746.00  8.8510E+002
 746.50  8.7753E+002
 747.00  8.6614E+002
 747.50  8.5857E+002
 748.00  8.6240E+002
 748.50  8.7431E+002
 749.00  8.8885E+002
 749.50  9.1026E+002
 750.00  9.2669E+002
 750.50  9.3513E+002
 751.00  9.4383E+002
 751.50  9.4709E+002
 752.00  9.4919E+002
 752.50  9.5592E+002
 753.00  9.5623E+002
 753.50  9.5699E+002
 754.00  9.6242E+002
 754.50  9.6752E+002
 755.00  9.6999E+002
 755.50  9.6672E+002
 756.00  9.6651E+002
 756.50  9.6574E+002
 757.00  9.6298E+002
 757.50  9.5482E+002
 758.00  9.3738E+002
 758.50  9.2436E+002
 759.00  9.1558E+002
 759.50  9.0764E+002
 760.00  9.0144E+002
 760.50  8.9338E+002
 761.00  8.8740E+002
 761.50  8.9169E+002
 762.00  8.9318E+002
 762.50  8.8982E+002
 763.00  8.9686E+002
 763.50  9.0524E+002
 764.00  9.1366E+002
 764.50  9.1842E+002
 765.00  9.1444E+002
 765.50  9.1747E+002
 766.00  9.1642E+002
 766.50  9.1183E+002
 767.00  9.1072E+002
 767.50  8.9747E+002
 768.00  8.8769E+002
 768.50  8.9306E+002
 769.00  9.0423E+002
 769.50  9.0862E+002
 770.00  9.1735E+002
 770.50  9.2246E+002
 771.00  9.2019E+002
 771.50  9.3179E+002
 772.00  9.4158E+002
 772.50  9.4818E+002
 773.00  9.5604E+002
 773.50  9.5539E+002
 774.00  9.4931E+002
 774.50  9.4450E+002
 775.00  9.4918E+002
 775.50  9.4734E+002
 776.00  9.4355E+002
 776.50  9.3679E+002
 777.00  9.2513E+002
 777.50  9.2843E+002
 778.00  9.3402E+002
 778.50  9.4648E+002
 779.00  9.5086E+002
 779.50  9.3818E+002
 780.00  9.3479E+002
 780.50  9.3718E+002
 781.00  9.4090E+002
 781.50  9.5994E+002
 782.00  9.6635E+002
 782.50  9.5851E+002
 783.00  9.5429E+002
 783.50  9.3609E+002
 784.00  9.2188E+002
 784.50  9.1503E+002
 785.00  9.0695E+002
 785.50  9.0541E+002
 786.00  9.0212E+002
 786.50  9.0227E+002
 787.00  8.9942E+002
 787.50  8.8498E+002
 788.00  8.7340E+002
 788.50  8.6568E+002
 789.00  8.6272E+002
 789.50  8.7205E+002
 790.00  8.9695E+002
 790.50  9.1991E+002
 791.00  9.3224E+002
 791.50  9.3616E+002
 792.00  9.3015E+002
 792.50  9.1094E+002
 793.00  8.8859E+002
 793.50  8.7687E+002
 794.00  8.8249E+002
 794.50  9.0136E+002
 795.00  9.2101E+002
 795.50  9.3108E+002
 796.00  9.2510E+002
 796.50  9.2149E+002
 797.00  9.2801E+002
 797.50  9.3045E+002
 798.00  9.3217E+002
 798.50  9.2486E+002
 799.00  9.1168E+002
 799.50  9.1431E+002
 800.00  9.2862E+002
 800.50  9.4988E+002
 801.00  9.6711E+002
 801.50  9.6846E+002
 802.00  9.6020E+002
 802.50  9.4577E+002
 803.00  9.4376E+002
 803.50  9.5619E+002
 804.00  9.7192E+002
 804.50  9.7743E+002
 805.00  9.6467E+002
 805.50  9.5508E+002
 806.00  9.4406E+002
 806.50  9.3927E+002
 807.00  9.4845E+002
 807.50  9.4668E+002
 808.00  9.4265E+002
 808.50  9.4279E+002
 809.00  9.5103E+002
 809.50  9.6593E+002
 810.00  9.6733E+002
 810.50  9.5415E+002
 811.00  9.3353E+002
 811.50  9.1575E+002
 812.00  9.1180E+002
 812.50  9.1530E+002
 813.00  9.1561E+002
 813.50  9.1230E+002
 814.00  9.1014E+002
 814.50  9.1179E+002
 815.00  9.0802E+002
 815.50  8.9876E+002
 816.00  8.8498E+002
 816.50  8.7064E+002
 817.00  8.7205E+002
 817.50  8.8844E+002
 818.00  9.1768E+002
 818.50  9.4441E+002
 819.00  9.6048E+002
 819.50  9.6772E+002
 820.00  9.6219E+002
 820.50  9.5161E+002
 821.00  9.4561E+002
 821.50  9.3602E+002
 822.00  9.2942E+002
 822.50  9.2539E+002
 823.00  9.2859E+002
 823.50  9.3963E+002
 824.00  9.4585E+002
 824.50  9.4576E+002
 825.00  9.2610E+002
 825.50  9.0954E+002
 826.00  9.0088E+002
 826.50  9.0430E+002
 827.00  9.2170E+002
 827.50  9.3371E+002
 828.00  9.4138E+002
 828.50  9.3751E+002
 829.00  9.3501E+002
 829.50  9.4005E+002
 830.00  9.5098E+002
 830.50  9.7084E+002
 831.00  9.6900E+002
 831.50  9.4566E+002
 832.00  9.1895E+002
 832.50  9.0254E+002
 833.00  8.9950E+002
 833.50  9.0630E+002
 834.00  9.2670E+002
 834.50  9.4409E+002
 835.00  9.5381E+002
 835.50  9.5821E+002
 836.00  9.4622E+002
 836.50  9.2311E+002
 837.00  9.1062E+002
 837.50  9.0344E+002
 838.00  8.9853E+002
 838.50  8.9575E+002
 839.00  8.8913E+002
 839.50  8.8305E+002
 840.00  8.6448E+002
 840.50  8.4468E+002
 841.00  8.4235E+002
 841.50  8.5313E+002
 842.00  8.6547E+002
 842.50  8.8564E+002
 843.00  8.9813E+002
 843.50  9.0203E+002
 844.00  9.1580E+002
 844.50  9.2051E+002
 845.00  9.2325E+002
 845.50  9.2738E+002
 846.00  9.2437E+002
 846.50  9.2475E+002
 847.00  9.1821E+002
 847.50  9.1431E+002
 848.00  9.2083E+002
 848.50  9.2380E+002
 849.00  9.2767E+002
 849.50  9.2576E+002
 850.00  9.1420E+002
 850.50  9.0380E+002
 851.00  8.9198E+002
 851.50  8.8968E+002
 852.00  9.0046E+002
 852.50  9.0954E+002
 853.00  9.4232E+002
 853.50  9.7762E+002
 854.00  9.8184E+002
 854.50  9.8655E+002
 855.00  9.6277E+002
 855.50  9.3423E+002
 856.00  9.3533E+002
 856.50  9.3138E+002
 857.00  9.2462E+002
 857.50  9.2473E+002
 858.00  9.2191E+002
 858.50  9.2639E+002
 859.00  9.2776E+002
 859.50  9.1933E+002
 860.00  9.0388E+002
 860.50  8.9534E+002
 861.00  8.9056E+002
 861.50  8.8504E+002
 862.00  8.9117E+002
 862.50  8.9207E+002
 863.00  8.8714E+002
 863.50  8.7899E+002
 864.00  8.7505E+002
 864.50  8.9033E+002
 865.00  9.0523E+002
 865.50  9.0786E+002
 866.00  8.9583E+002
 866.50  8.8301E+002
 867.00  8.8219E+002
 867.50  8.9759E+002
 868.00  9.1132E+002
 868.50  9.0751E+002
 869.00  8.9772E+002
 869.50  8.9620E+002
 870.00  8.9974E+002
 870.50  9.1014E+002
 871.00  9.2443E+002
 871.50  9.3650E+002
 872.00  9.4290E+002
 872.50  9.3873E+002
 873.00  9.2631E+002
 873.50  9.2055E+002
 874.00  9.3330E+002
 874.50  9.4341E+002
 875.00  9.5448E+002
 875.50  9.5054E+002
 876.00  9.2957E+002
 876.50  9.1461E+002
 877.00  9.0131E+002
 877.50  8.8575E+002
 878.00  8.7918E+002
 878.50  8.8114E+002
 879.00  8.7809E+002
 879.50  8.7942E+002
 880.00  8.7832E+002
 880.50  8.7955E+002
 881.00  8.8292E+002
 881.50  8.7769E+002
 882.00  8.6541E+002
 882.50  8.6065E+002
 883.00  8.6176E+002
 883.50  8.7184E+002
 884.00  8.8086E+002
 884.50  8.8914E+002
 885.00  9.0037E+002
 885.50  9.1122E+002
 886.00  9.3023E+002
 886.50  9.3252E+002
 887.00  9.3211E+002
 887.50  9.3077E+002
 888.00  9.2297E+002
 888.50  9.2249E+002
 889.00  9.1870E+002
 889.50  9.2044E+002
 890.00  9.2133E+002
 890.50  9.2416E+002
 891.00  9.3251E+002
 891.50  9.2749E+002
 892.00  9.1888E+002
 892.50  9.2856E+002
 893.00  9.2922E+002
 893.50  9.3481E+002
 894.00  9.2988E+002
 894.50  9.2248E+002
 895.00  9.2663E+002
 895.50  9.3418E+002
 896.00  9.4871E+002
 896.50  9.4716E+002
 897.00  9.3467E+002
 897.50  9.3161E+002
 898.00  9.2549E+002
 898.50  9.2012E+002
 899.00  9.1356E+002
 899.50  9.0566E+002
 900.00  9.1458E+002
 900.50  9.2761E+002
 901.00  9.4570E+002
 901.50  9.4890E+002
 902.00  9.3188E+002
 902.50  9.3412E+002
 903.00  9.4934E+002
 903.50  9.6799E+002
 904.00  9.7866E+002
 904.50  9.6744E+002
 905.00  9.4492E+002
 905.50  9.2525E+002
 906.00  9.2331E+002
 906.50  9.1330E+002
 907.00  9.0492E+002
 907.50  9.0428E+002
 908.00  8.9918E+002
 908.50  9.0936E+002
 909.00  9.2135E+002
 909.50  9.3688E+002
 910.00  9.5367E+002
 910.50  9.5624E+002
 911.00  9.5675E+002
 911.50  9.4912E+002
 912.00  9.3307E+002
 912.50  9.2271E+002
 913.00  9.1575E+002
 913.50  9.1369E+002
 914.00  9.1856E+002
 914.50  9.2706E+002
 915.00  9.2922E+002
 915.50  9.4335E+002
 916.00  9.6612E+002
 916.50  9.8802E+002
 917.00  9.9933E+002
 917.50  9.9835E+002
 918.00  9.9684E+002
 918.50  1.0890E+003
 919.00  1.1834E+003
 919.50  1.2136E+003
 920.00  1.2076E+003
 920.50  1.1023E+003
 921.00  1.0213E+003
 921.50  9.9390E+002
 922.00  9.7323E+002
 922.50  9.5908E+002
 923.00  9.5986E+002
 923.50  9.6250E+002
 924.00  9.6670E+002
 924.50  9.6509E+002
 925.00  9.5512E+002
 925.50  9.3801E+002
 926.00  9.2527E+002
 926.50  9.1859E+002
 927.00  9.2205E+002
 927.50  9.2476E+002
 928.00  9.3513E+002
 928.50  9.4860E+002
 929.00  9.4734E+002
 929.50  9.4667E+002
 930.00  9.4835E+002
 930.50  9.5866E+002
 931.00  9.6562E+002
 931.50  9.6746E+002
 932.00  9.5516E+002
 932.50  9.4931E+002
 933.00  9.4176E+002
 933.50  9.2156E+002
 934.00  9.1275E+002
 934.50  9.0829E+002
 935.00  9.1711E+002
 935.50  9.3178E+002
 936.00  9.3273E+002
 936.50  9.3232E+002
 937.00  9.2543E+002
 937.50  9.2848E+002
 938.00  9.4656E+002
 938.50  9.7991E+002
 939.00  9.9528E+002
 939.50  9.9144E+002
 940.00  9.5798E+002
 940.50  9.3251E+002
 941.00  9.3032E+002
 941.50  9.3296E+002
 942.00  9.3420E+002
 942.50  9.3221E+002
 943.00  9.3578E+002
 943.50  9.4140E+002
 944.00  9.5634E+002
 944.50  9.6921E+002
 945.00  9.6920E+002
 945.50  9.6812E+002
 946.00  9.5918E+002
 946.50  9.4360E+002
 947.00  9.3119E+002
 947.50  9.2308E+002
 948.00  9.2774E+002
 948.50  9.3201E+002
 949.00  9.4657E+002
 949.50  9.4839E+002
 950.00  9.3720E+002
 950.50  9.2883E+002
 951.00  9.0868E+002
 951.50  9.0762E+002
 952.00  9.1434E+002
 952.50  9.0924E+002
 953.00  9.0074E+002
 953.50  8.8764E+002
 954.00  8.9783E+002
 954.50  9.3510E+002
 955.00  9.6153E+002
 955.50  9.7082E+002
 956.00  9.6767E+002
 956.50  9.6757E+002
 957.00  9.9643E+002
 957.50  1.0258E+003
 958.00  1.0263E+003
 958.50  1.0070E+003
 959.00  9.6804E+002
 959.50  9.4663E+002
 960.00  9.3978E+002
 960.50  9.3972E+002
 961.00  9.4559E+002
 961.50  9.5079E+002
 962.00  9.4724E+002
 962.50  9.5244E+002
 963.00  9.4319E+002
 963.50  9.4148E+002
 964.00  9.4300E+002
 964.50  9.3998E+002
 965.00  9.4687E+002
 965.50  9.3538E+002
 966.00  9.1821E+002
 966.50  9.1099E+002
 967.00  9.2596E+002
 967.50  9.6204E+002
 968.00  9.9469E+002
 968.50  9.9605E+002
 969.00  9.6955E+002
 969.50  9.5895E+002
 970.00  9.5688E+002
 970.50  9.6018E+002
 971.00  9.6479E+002
 971.50  9.6047E+002
 972.00  9.5812E+002
 972.50  9.5956E+002
 973.00  9.5146E+002
 973.50  9.4831E+002
 974.00  9.6295E+002
 974.50  9.7270E+002
 975.00  9.8571E+002
 975.50  9.8242E+002
 976.00  9.7938E+002
 976.50  9.8058E+002
 977.00  9.7109E+002
 977.50  9.6628E+002
 978.00  9.6575E+002
 978.50  9.9111E+002
 979.00  1.0245E+003
 979.50  1.0525E+003
 980.00  1.0575E+003
 980.50  1.0566E+003
 981.00  1.0571E+003
 981.50  1.0673E+003
 982.00  1.0708E+003
 982.50  1.0632E+003
 983.00  1.0522E+003
 983.50  1.0331E+003
 984.00  1.0290E+003
 984.50  1.0328E+003
 985.00  1.0460E+003
 985.50  1.0632E+003
 986.00  1.0660E+003
 986.50  1.0709E+003
 987.00  1.0713E+003
 987.50  1.0767E+003
 988.00  1.0983E+003
 988.50  1.1049E+003
 989.00  1.1042E+003
 989.50  1.0852E+003
 990.00  1.0687E+003
 990.50  1.0628E+003
 991.00  1.0672E+003
 991.50  1.0966E+003
 992.00  1.1585E+003
 992.50  1.2730E+003
 993.00  1.4575E+003
 993.50  1.7465E+003
 994.00  2.1624E+003
 994.50  2.7759E+003
 995.00  3.5351E+003
 995.50  4.4170E+003
 996.00  5.3799E+003
 996.50  6.3410E+003
 997.00  7.2668E+003
 997.50  8.1550E+003
 998.00  8.9442E+003
 998.50  9.6395E+003
 999.00  1.0227E+004
 999.50  1.0696E+004
1000.00  1.1115E+004
1000.50  1.1477E+004
1001.00  1.1776E+004
1001.50  1.2043E+004
1002.00  1.2263E+004
1002.50  1.2370E+004
1003.00  1.2201E+004
1003.50  1.1611E+004
1004.00  1.0557E+004
1004.50  9.2351E+003
1005.00  7.7970E+003
1005.50  6.3148E+003
1006.00  4.8545E+003
1006.50  3.5282E+003
1007.00  2.4736E+003
1007.50  1.7892E+003
1008.00  1.3897E+003
1008.50  1.1937E+003
1009.00  1.1197E+003
1009.50  1.1024E+003
1010.00  1.0936E+003
1010.50  1.0892E+003
1011.00  1.0598E+003
1011.50  1.0634E+003
1012.00  1.0612E+003
1012.50  1.0498E+003
1013.00  1.0288E+003
1013.50  1.0068E+003
1014.00  1.0022E+003
1014.50  1.0143E+003
1015.00  1.0224E+003
1015.50  1.0199E+003
1016.00  1.0283E+003
1016.50  1.0354E+003
1017.00  1.0295E+003
1017.50  1.0243E+003
1018.00  1.0133E+003
1018.50  1.0125E+003
1019.00  1.0075E+003
1019.50  9.9655E+002
1020.00  9.9144E+002
1020.50  9.8536E+002
1021.00  9.9119E+002
1021.50  9.8622E+002
1022.00  9.8002E+002
1022.50  9.7260E+002
1023.00  9.5531E+002
1023.50  9.5071E+002
1024.00  9.4421E+002
1024.50  9.6681E+002
1025.00  9.8170E+002
1025.50  9.8674E+002
1026.00  9.8825E+002
1026.50  9.8431E+002
1027.00  9.9850E+002
1027.50  1.0040E+003
1028.00  9.9970E+002
1028.50  9.8509E+002
1029.00  9.5980E+002
1029.50  9.5280E+002
1030.00  9.4781E+002
1030.50  9.6965E+002
1031.00  1.0009E+003
1031.50  1.0072E+003
1032.00  9.8364E+002
1032.50  9.4942E+002
1033.00  9.2443E+002
1033.50  9.3191E+002
1034.00  9.5019E+002
1034.50  9.8409E+002
1035.00  1.0100E+003
1035.50  1.0219E+003
1036.00  1.0174E+003
1036.50  9.9794E+002
1037.00  9.7812E+002
1037.50  9.6628E+002
1038.00  9.5111E+002
1038.50  9.5142E+002
1039.00  9.4391E+002
1039.50  9.3337E+002
1040.00  9.2718E+002
1040.50  9.2214E+002
1041.00  9.2477E+002
1041.50  9.2416E+002
1042.00  9.2554E+002
1042.50  9.5930E+002
1043.00  1.0028E+003
1043.50  1.0215E+003
1044.00  1.0219E+003
1044.50  9.9234E+002
1045.00  9.7178E+002
1045.50  9.5542E+002
1046.00  9.4447E+002
1046.50  9.3631E+002
1047.00  9.3719E+002
1047.50  9.4844E+002
1048.00  9.6541E+002
1048.50  9.8684E+002
1049.00  9.7231E+002
1049.50  9.4372E+002
1050.00  9.2013E+002
1050.50  9.1482E+002
1051.00  9.2661E+002
1051.50  9.3590E+002
1052.00  9.3826E+002
1052.50  9.3075E+002
1053.00  9.2500E+002
1053.50  9.3293E+002
1054.00  9.4114E+002
1054.50  9.4065E+002
1055.00  9.2228E+002
1055.50  9.0284E+002
1056.00  8.8735E+002
1056.50  8.7741E+002
1057.00  8.8037E+002
1057.50  9.0077E+002
1058.00  9.2950E+002
1058.50  9.3747E+002
1059.00  9.2691E+002
1059.50  9.1032E+002
1060.00  9.1959E+002
1060.50  9.4427E+002
1061.00  9.7025E+002
1061.50  9.6974E+002
1062.00  9.6012E+002
1062.50  9.5818E+002
1063.00  9.6956E+002
1063.50  9.7245E+002
1064.00  9.5141E+002
1064.50  9.2213E+002
1065.00  9.0818E+002
1065.50  9.0221E+002
1066.00  9.1867E+002
1066.50  9.1940E+002
1067.00  9.2226E+002
1067.50  9.2148E+002
1068.00  9.1980E+002
1068.50  9.3172E+002
1069.00  9.3546E+002
1069.50  9.4191E+002
1070.00  9.4029E+002
1070.50  9.1929E+002
1071.00  9.0244E+002
1071.50  9.0924E+002
1072.00  9.5037E+002
1072.50  7.9583E+002
