" File: Users\LabUser\Documents\MonochromatorCal
"  SCOPE->  Wave:693.48nm  Pix:1050  Val:861.400  Time:100ms  Avg:1  Sm:1  Sg:0  Tc:off  SNAP  Xt:3  Ch:1  Xtrig  
 191.00  8.7034E+002
 191.50  8.7775E+002
 192.00  8.6004E+002
 192.50  8.3302E+002
 193.00  8.3186E+002
 193.50  8.2404E+002
 194.00  8.0452E+002
 194.50  8.1586E+002
 195.00  8.2262E+002
 195.50  8.1097E+002
 196.00  8.0385E+002
 196.50  8.1943E+002
 197.00  8.4033E+002
 197.50  8.2839E+002
 198.00  7.9024E+002
 198.50  7.8333E+002
 199.00  8.1266E+002
 199.50  8.2200E+002
 200.00  8.1919E+002
 200.50  8.3031E+002
 201.00  8.5293E+002
 201.50  8.4985E+002
 202.00  8.3118E+002
 202.50  8.1883E+002
 203.00  8.1120E+002
 203.50  8.1252E+002
 204.00  8.2396E+002
 204.50  8.3170E+002
 205.00  8.3068E+002
 205.50  8.3191E+002
 206.00  8.3750E+002
 206.50  8.4072E+002
 207.00  8.4760E+002
 207.50  8.6166E+002
 208.00  8.7188E+002
 208.50  8.7825E+002
 209.00  8.8520E+002
 209.50  8.9131E+002
 210.00  8.8967E+002
 210.50  8.8631E+002
 211.00  8.8802E+002
 211.50  8.8905E+002
 212.00  8.8154E+002
 212.50  8.6867E+002
 213.00  8.5678E+002
 213.50  8.4356E+002
 214.00  8.2812E+002
 214.50  8.1935E+002
 215.00  8.1923E+002
 215.50  8.2299E+002
 216.00  8.3687E+002
 216.50  8.4903E+002
 217.00  8.5158E+002
 217.50  8.5241E+002
 218.00  8.5022E+002
 218.50  8.4074E+002
 219.00  8.3321E+002
 219.50  8.3497E+002
 220.00  8.3942E+002
 220.50  8.4190E+002
 221.00  8.4505E+002
 221.50  8.4618E+002
 222.00  8.4153E+002
 222.50  8.3593E+002
 223.00  8.3607E+002
 223.50  8.3982E+002
 224.00  8.4319E+002
 224.50  8.4150E+002
 225.00  8.3269E+002
 225.50  8.2194E+002
 226.00  8.1612E+002
 226.50  8.1759E+002
 227.00  8.2019E+002
 227.50  8.2586E+002
 228.00  8.3750E+002
 228.50  8.4738E+002
 229.00  8.4510E+002
 229.50  8.3354E+002
 230.00  8.2434E+002
 230.50  8.1947E+002
 231.00  8.1320E+002
 231.50  8.1087E+002
 232.00  8.2231E+002
 232.50  8.3978E+002
 233.00  8.5247E+002
 233.50  8.6875E+002
 234.00  8.8520E+002
 234.50  8.9375E+002
 235.00  8.9800E+002
 235.50  8.9615E+002
 236.00  8.8399E+002
 236.50  8.7173E+002
 237.00  8.6587E+002
 237.50  8.6313E+002
 238.00  8.6208E+002
 238.50  8.6392E+002
 239.00  8.6563E+002
 239.50  8.6430E+002
 240.00  8.6333E+002
 240.50  8.6489E+002
 241.00  8.6549E+002
 241.50  8.6698E+002
 242.00  8.6670E+002
 242.50  8.6516E+002
 243.00  8.6194E+002
 243.50  8.5889E+002
 244.00  8.5568E+002
 244.50  8.5358E+002
 245.00  8.4940E+002
 245.50  8.4437E+002
 246.00  8.4135E+002
 246.50  8.3889E+002
 247.00  8.3960E+002
 247.50  8.4408E+002
 248.00  8.4802E+002
 248.50  8.5227E+002
 249.00  8.5755E+002
 249.50  8.5691E+002
 250.00  8.5038E+002
 250.50  8.4591E+002
 251.00  8.4378E+002
 251.50  8.3416E+002
 252.00  8.2714E+002
 252.50  8.2881E+002
 253.00  8.2900E+002
 253.50  8.2825E+002
 254.00  8.2695E+002
 254.50  8.2139E+002
 255.00  8.1401E+002
 255.50  8.1014E+002
 256.00  8.0968E+002
 256.50  8.1297E+002
 257.00  8.2125E+002
 257.50  8.3235E+002
 258.00  8.4474E+002
 258.50  8.5379E+002
 259.00  8.5617E+002
 259.50  8.5615E+002
 260.00  8.5493E+002
 260.50  8.4745E+002
 261.00  8.3884E+002
 261.50  8.3818E+002
 262.00  8.3953E+002
 262.50  8.3965E+002
 263.00  8.4309E+002
 263.50  8.4619E+002
 264.00  8.4083E+002
 264.50  8.3509E+002
 265.00  8.3244E+002
 265.50  8.2440E+002
 266.00  8.1710E+002
 266.50  8.1940E+002
 267.00  8.2602E+002
 267.50  8.2772E+002
 268.00  8.2721E+002
 268.50  8.2884E+002
 269.00  8.3310E+002
 269.50  8.4232E+002
 270.00  8.5665E+002
 270.50  8.7294E+002
 271.00  8.8699E+002
 271.50  8.9426E+002
 272.00  8.9297E+002
 272.50  8.8350E+002
 273.00  8.6937E+002
 273.50  8.5911E+002
 274.00  8.5442E+002
 274.50  8.5209E+002
 275.00  8.5671E+002
 275.50  8.7047E+002
 276.00  8.8284E+002
 276.50  8.8611E+002
 277.00  8.9069E+002
 277.50  8.8992E+002
 278.00  8.8327E+002
 278.50  8.7514E+002
 279.00  8.6467E+002
 279.50  8.4400E+002
 280.00  8.2221E+002
 280.50  8.0748E+002
 281.00  7.9972E+002
 281.50  7.9832E+002
 282.00  8.0261E+002
 282.50  8.0738E+002
 283.00  8.1027E+002
 283.50  8.1015E+002
 284.00  8.0441E+002
 284.50  7.9812E+002
 285.00  7.9790E+002
 285.50  7.9917E+002
 286.00  7.9946E+002
 286.50  8.0438E+002
 287.00  8.0862E+002
 287.50  8.0506E+002
 288.00  8.0283E+002
 288.50  8.0560E+002
 289.00  8.0575E+002
 289.50  8.0818E+002
 290.00  8.1939E+002
 290.50  8.2345E+002
 291.00  8.2192E+002
 291.50  8.2539E+002
 292.00  8.2649E+002
 292.50  8.2577E+002
 293.00  8.3360E+002
 293.50  8.4404E+002
 294.00  8.4836E+002
 294.50  8.4928E+002
 295.00  8.4886E+002
 295.50  8.4156E+002
 296.00  8.3030E+002
 296.50  8.2548E+002
 297.00  8.2867E+002
 297.50  8.3233E+002
 298.00  8.3736E+002
 298.50  8.4724E+002
 299.00  8.5490E+002
 299.50  8.5577E+002
 300.00  8.5545E+002
 300.50  8.5820E+002
 301.00  8.6176E+002
 301.50  8.6211E+002
 302.00  8.6134E+002
 302.50  8.6274E+002
 303.00  8.6028E+002
 303.50  8.5244E+002
 304.00  8.4569E+002
 304.50  8.4120E+002
 305.00  8.3139E+002
 305.50  8.2082E+002
 306.00  8.1685E+002
 306.50  8.1977E+002
 307.00  8.2326E+002
 307.50  8.3442E+002
 308.00  8.4771E+002
 308.50  8.5375E+002
 309.00  8.5252E+002
 309.50  8.5253E+002
 310.00  8.5212E+002
 310.50  8.5262E+002
 311.00  8.5190E+002
 311.50  8.4770E+002
 312.00  8.4216E+002
 312.50  8.3745E+002
 313.00  8.3522E+002
 313.50  8.3418E+002
 314.00  8.3428E+002
 314.50  8.3483E+002
 315.00  8.3270E+002
 315.50  8.2515E+002
 316.00  8.1581E+002
 316.50  8.0599E+002
 317.00  7.9420E+002
 317.50  7.8577E+002
 318.00  7.8530E+002
 318.50  7.8971E+002
 319.00  7.9603E+002
 319.50  8.0563E+002
 320.00  8.1640E+002
 320.50  8.2404E+002
 321.00  8.2608E+002
 321.50  8.2918E+002
 322.00  8.3546E+002
 322.50  8.3677E+002
 323.00  8.3033E+002
 323.50  8.3061E+002
 324.00  8.3425E+002
 324.50  8.3743E+002
 325.00  8.4133E+002
 325.50  8.4866E+002
 326.00  8.5663E+002
 326.50  8.6035E+002
 327.00  8.5894E+002
 327.50  8.5581E+002
 328.00  8.4954E+002
 328.50  8.3597E+002
 329.00  8.2675E+002
 329.50  8.2749E+002
 330.00  8.3211E+002
 330.50  8.4197E+002
 331.00  8.5134E+002
 331.50  8.5972E+002
 332.00  8.6283E+002
 332.50  8.6141E+002
 333.00  8.6116E+002
 333.50  8.6555E+002
 334.00  8.6984E+002
 334.50  8.6694E+002
 335.00  8.6023E+002
 335.50  8.5139E+002
 336.00  8.4666E+002
 336.50  8.5013E+002
 337.00  8.5907E+002
 337.50  8.6892E+002
 338.00  8.7806E+002
 338.50  8.7956E+002
 339.00  8.6906E+002
 339.50  8.5626E+002
 340.00  8.4705E+002
 340.50  8.3795E+002
 341.00  8.2919E+002
 341.50  8.2234E+002
 342.00  8.1439E+002
 342.50  8.0532E+002
 343.00  8.0168E+002
 343.50  8.0522E+002
 344.00  8.1196E+002
 344.50  8.2188E+002
 345.00  8.3253E+002
 345.50  8.3586E+002
 346.00  8.3222E+002
 346.50  8.2866E+002
 347.00  8.2575E+002
 347.50  8.2347E+002
 348.00  8.2532E+002
 348.50  8.2861E+002
 349.00  8.2719E+002
 349.50  8.2114E+002
 350.00  8.1331E+002
 350.50  8.0637E+002
 351.00  8.0581E+002
 351.50  8.1256E+002
 352.00  8.2131E+002
 352.50  8.3272E+002
 353.00  8.4797E+002
 353.50  8.6000E+002
 354.00  8.6598E+002
 354.50  8.7196E+002
 355.00  8.7340E+002
 355.50  8.6744E+002
 356.00  8.6077E+002
 356.50  8.5756E+002
 357.00  8.5408E+002
 357.50  8.5070E+002
 358.00  8.5033E+002
 358.50  8.5065E+002
 359.00  8.4763E+002
 359.50  8.4049E+002
 360.00  8.3772E+002
 360.50  8.3983E+002
 361.00  8.4034E+002
 361.50  8.4400E+002
 362.00  8.5408E+002
 362.50  8.6134E+002
 363.00  8.6272E+002
 363.50  8.6419E+002
 364.00  8.6817E+002
 364.50  8.7059E+002
 365.00  8.7780E+002
 365.50  8.8553E+002
 366.00  8.9274E+002
 366.50  8.9732E+002
 367.00  8.9554E+002
 367.50  8.8430E+002
 368.00  8.7158E+002
 368.50  8.5931E+002
 369.00  8.4506E+002
 369.50  8.3739E+002
 370.00  8.3220E+002
 370.50  8.2697E+002
 371.00  8.2033E+002
 371.50  8.1220E+002
 372.00  8.0583E+002
 372.50  8.0712E+002
 373.00  8.1170E+002
 373.50  8.1565E+002
 374.00  8.1810E+002
 374.50  8.2250E+002
 375.00  8.1777E+002
 375.50  8.1612E+002
 376.00  8.2280E+002
 376.50  8.3393E+002
 377.00  8.4150E+002
 377.50  8.5851E+002
 378.00  8.7586E+002
 378.50  8.7908E+002
 379.00  8.7275E+002
 379.50  8.7038E+002
 380.00  8.6917E+002
 380.50  8.5824E+002
 381.00  8.5106E+002
 381.50  8.5344E+002
 382.00  8.4710E+002
 382.50  8.4368E+002
 383.00  8.5339E+002
 383.50  8.6551E+002
 384.00  8.7462E+002
 384.50  8.8555E+002
 385.00  8.8389E+002
 385.50  8.7227E+002
 386.00  8.6503E+002
 386.50  8.5754E+002
 387.00  8.4927E+002
 387.50  8.4746E+002
 388.00  8.5168E+002
 388.50  8.5621E+002
 389.00  8.6503E+002
 389.50  8.7539E+002
 390.00  8.7707E+002
 390.50  8.7010E+002
 391.00  8.5563E+002
 391.50  8.4012E+002
 392.00  8.3255E+002
 392.50  8.3426E+002
 393.00  8.3865E+002
 393.50  8.4554E+002
 394.00  8.4971E+002
 394.50  8.4250E+002
 395.00  8.3268E+002
 395.50  8.2873E+002
 396.00  8.3009E+002
 396.50  8.3615E+002
 397.00  8.5064E+002
 397.50  8.6171E+002
 398.00  8.6572E+002
 398.50  8.6534E+002
 399.00  8.5951E+002
 399.50  8.4776E+002
 400.00  8.3645E+002
 400.50  8.2857E+002
 401.00  8.2686E+002
 401.50  8.3071E+002
 402.00  8.3462E+002
 402.50  8.3628E+002
 403.00  8.3994E+002
 403.50  8.4104E+002
 404.00  8.3512E+002
 404.50  8.2663E+002
 405.00  8.2468E+002
 405.50  8.2430E+002
 406.00  8.1635E+002
 406.50  8.0718E+002
 407.00  8.0496E+002
 407.50  8.0656E+002
 408.00  8.0686E+002
 408.50  8.1154E+002
 409.00  8.2159E+002
 409.50  8.2629E+002
 410.00  8.2067E+002
 410.50  8.1449E+002
 411.00  8.1112E+002
 411.50  8.0980E+002
 412.00  8.1366E+002
 412.50  8.2072E+002
 413.00  8.2888E+002
 413.50  8.4078E+002
 414.00  8.5009E+002
 414.50  8.5355E+002
 415.00  8.5726E+002
 415.50  8.6133E+002
 416.00  8.6324E+002
 416.50  8.6532E+002
 417.00  8.6390E+002
 417.50  8.6252E+002
 418.00  8.5856E+002
 418.50  8.4448E+002
 419.00  8.3235E+002
 419.50  8.3422E+002
 420.00  8.3810E+002
 420.50  8.3784E+002
 421.00  8.3907E+002
 421.50  8.4257E+002
 422.00  8.4286E+002
 422.50  8.4123E+002
 423.00  8.4957E+002
 423.50  8.6573E+002
 424.00  8.7465E+002
 424.50  8.7634E+002
 425.00  8.8184E+002
 425.50  8.8339E+002
 426.00  8.7723E+002
 426.50  8.6221E+002
 427.00  8.4969E+002
 427.50  8.3204E+002
 428.00  8.1428E+002
 428.50  8.0775E+002
 429.00  8.1073E+002
 429.50  8.1431E+002
 430.00  8.2403E+002
 430.50  8.3187E+002
 431.00  8.2946E+002
 431.50  8.2405E+002
 432.00  8.1705E+002
 432.50  8.0991E+002
 433.00  8.1100E+002
 433.50  8.2144E+002
 434.00  8.3311E+002
 434.50  8.4653E+002
 435.00  8.5663E+002
 435.50  8.5356E+002
 436.00  8.4026E+002
 436.50  8.2908E+002
 437.00  8.1892E+002
 437.50  8.0647E+002
 438.00  7.9777E+002
 438.50  7.9856E+002
 439.00  8.0703E+002
 439.50  8.1564E+002
 440.00  8.2398E+002
 440.50  8.2931E+002
 441.00  8.3142E+002
 441.50  8.2999E+002
 442.00  8.2940E+002
 442.50  8.2940E+002
 443.00  8.3207E+002
 443.50  8.3191E+002
 444.00  8.2770E+002
 444.50  8.2812E+002
 445.00  8.3389E+002
 445.50  8.4183E+002
 446.00  8.5271E+002
 446.50  8.6864E+002
 447.00  8.8066E+002
 447.50  8.8783E+002
 448.00  8.9355E+002
 448.50  8.9055E+002
 449.00  8.8324E+002
 449.50  8.7963E+002
 450.00  8.7291E+002
 450.50  8.6663E+002
 451.00  8.7117E+002
 451.50  8.7118E+002
 452.00  8.6435E+002
 452.50  8.6382E+002
 453.00  8.6314E+002
 453.50  8.5764E+002
 454.00  8.5581E+002
 454.50  8.5553E+002
 455.00  8.5437E+002
 455.50  8.5577E+002
 456.00  8.5833E+002
 456.50  8.5799E+002
 457.00  8.5627E+002
 457.50  8.5802E+002
 458.00  8.6004E+002
 458.50  8.5959E+002
 459.00  8.5906E+002
 459.50  8.5566E+002
 460.00  8.4148E+002
 460.50  8.2366E+002
 461.00  8.1353E+002
 461.50  8.0960E+002
 462.00  8.0958E+002
 462.50  8.1223E+002
 463.00  8.0973E+002
 463.50  8.0292E+002
 464.00  7.9777E+002
 464.50  7.9991E+002
 465.00  8.0702E+002
 465.50  8.1576E+002
 466.00  8.2349E+002
 466.50  8.2918E+002
 467.00  8.3143E+002
 467.50  8.3006E+002
 468.00  8.2983E+002
 468.50  8.3367E+002
 469.00  8.3955E+002
 469.50  8.4730E+002
 470.00  8.6074E+002
 470.50  8.7491E+002
 471.00  8.8537E+002
 471.50  8.9537E+002
 472.00  9.1240E+002
 472.50  9.3919E+002
 473.00  9.7228E+002
 473.50  1.0097E+003
 474.00  1.0454E+003
 474.50  1.0750E+003
 475.00  1.0986E+003
 475.50  1.1125E+003
 476.00  1.1218E+003
 476.50  1.1227E+003
 477.00  1.1139E+003
 477.50  1.0924E+003
 478.00  1.0587E+003
 478.50  1.0174E+003
 479.00  9.7827E+002
 479.50  9.4067E+002
 480.00  9.1554E+002
 480.50  9.0638E+002
 481.00  8.9786E+002
 481.50  8.8699E+002
 482.00  8.7878E+002
 482.50  8.7083E+002
 483.00  8.6120E+002
 483.50  8.5551E+002
 484.00  8.5798E+002
 484.50  8.5915E+002
 485.00  8.4922E+002
 485.50  8.3853E+002
 486.00  8.2766E+002
 486.50  8.1760E+002
 487.00  8.1185E+002
 487.50  8.0533E+002
 488.00  8.0956E+002
 488.50  8.2169E+002
 489.00  8.2359E+002
 489.50  8.2155E+002
 490.00  8.2421E+002
 490.50  8.2305E+002
 491.00  8.2505E+002
 491.50  8.4035E+002
 492.00  8.5869E+002
 492.50  8.7003E+002
 493.00  8.7697E+002
 493.50  8.8132E+002
 494.00  8.8148E+002
 494.50  8.8195E+002
 495.00  8.8606E+002
 495.50  8.8256E+002
 496.00  8.6886E+002
 496.50  8.5836E+002
 497.00  8.5264E+002
 497.50  8.4743E+002
 498.00  8.5101E+002
 498.50  8.5987E+002
 499.00  8.6134E+002
 499.50  8.5796E+002
 500.00  8.5809E+002
 500.50  8.5946E+002
 501.00  8.6375E+002
 501.50  8.7437E+002
 502.00  8.8645E+002
 502.50  8.9360E+002
 503.00  8.9595E+002
 503.50  8.9514E+002
 504.00  8.8845E+002
 504.50  8.7629E+002
 505.00  8.7107E+002
 505.50  8.6839E+002
 506.00  8.6634E+002
 506.50  8.6619E+002
 507.00  8.7062E+002
 507.50  8.7107E+002
 508.00  8.7347E+002
 508.50  8.8391E+002
 509.00  8.9272E+002
 509.50  8.9074E+002
 510.00  8.8414E+002
 510.50  8.6995E+002
 511.00  8.5090E+002
 511.50  8.3993E+002
 512.00  8.3581E+002
 512.50  8.3244E+002
 513.00  8.3732E+002
 513.50  8.4780E+002
 514.00  8.5276E+002
 514.50  8.6010E+002
 515.00  8.6283E+002
 515.50  8.5333E+002
 516.00  8.4108E+002
 516.50  8.2801E+002
 517.00  8.1255E+002
 517.50  8.0488E+002
 518.00  8.0544E+002
 518.50  8.0560E+002
 519.00  8.0830E+002
 519.50  8.1398E+002
 520.00  8.1162E+002
 520.50  8.0550E+002
 521.00  8.0637E+002
 521.50  8.0608E+002
 522.00  8.0431E+002
 522.50  8.1165E+002
 523.00  8.2161E+002
 523.50  8.2927E+002
 524.00  8.3147E+002
 524.50  8.3487E+002
 525.00  8.4152E+002
 525.50  8.4896E+002
 526.00  8.6122E+002
 526.50  8.8151E+002
 527.00  8.9735E+002
 527.50  8.9886E+002
 528.00  8.9045E+002
 528.50  8.7928E+002
 529.00  8.6556E+002
 529.50  8.5463E+002
 530.00  8.4715E+002
 530.50  8.4036E+002
 531.00  8.3499E+002
 531.50  8.2727E+002
 532.00  8.2205E+002
 532.50  8.2318E+002
 533.00  8.2742E+002
 533.50  8.3186E+002
 534.00  8.3482E+002
 534.50  8.3895E+002
 535.00  8.4840E+002
 535.50  8.5719E+002
 536.00  8.6585E+002
 536.50  8.6683E+002
 537.00  8.5303E+002
 537.50  8.3773E+002
 538.00  8.2367E+002
 538.50  8.1580E+002
 539.00  8.2191E+002
 539.50  8.3682E+002
 540.00  8.5095E+002
 540.50  8.5932E+002
 541.00  8.5995E+002
 541.50  8.5861E+002
 542.00  8.4814E+002
 542.50  8.2829E+002
 543.00  8.2027E+002
 543.50  8.1695E+002
 544.00  8.1220E+002
 544.50  8.2098E+002
 545.00  8.3359E+002
 545.50  8.3983E+002
 546.00  8.4755E+002
 546.50  8.5162E+002
 547.00  8.4619E+002
 547.50  8.3991E+002
 548.00  8.4056E+002
 548.50  8.4118E+002
 549.00  8.4101E+002
 549.50  8.4442E+002
 550.00  8.4868E+002
 550.50  8.4841E+002
 551.00  8.4483E+002
 551.50  8.4523E+002
 552.00  8.5036E+002
 552.50  8.5133E+002
 553.00  8.4746E+002
 553.50  8.4374E+002
 554.00  8.3130E+002
 554.50  8.1424E+002
 555.00  8.0511E+002
 555.50  8.0462E+002
 556.00  8.0704E+002
 556.50  8.1483E+002
 557.00  8.2211E+002
 557.50  8.2394E+002
 558.00  8.2570E+002
 558.50  8.3184E+002
 559.00  8.4275E+002
 559.50  8.5365E+002
 560.00  8.6148E+002
 560.50  8.6585E+002
 561.00  8.7028E+002
 561.50  8.7322E+002
 562.00  8.7507E+002
 562.50  8.7330E+002
 563.00  8.7037E+002
 563.50  8.6923E+002
 564.00  8.7310E+002
 564.50  8.8129E+002
 565.00  8.9156E+002
 565.50  8.9623E+002
 566.00  8.9113E+002
 566.50  8.7761E+002
 567.00  8.6375E+002
 567.50  8.4767E+002
 568.00  8.3530E+002
 568.50  8.2980E+002
 569.00  8.3317E+002
 569.50  8.4014E+002
 570.00  8.4458E+002
 570.50  8.4601E+002
 571.00  8.4447E+002
 571.50  8.3524E+002
 572.00  8.2787E+002
 572.50  8.3130E+002
 573.00  8.3272E+002
 573.50  8.2969E+002
 574.00  8.2944E+002
 574.50  8.2268E+002
 575.00  8.1282E+002
 575.50  8.0764E+002
 576.00  8.0513E+002
 576.50  8.0607E+002
 577.00  8.1339E+002
 577.50  8.2052E+002
 578.00  8.2348E+002
 578.50  8.2300E+002
 579.00  8.2227E+002
 579.50  8.1459E+002
 580.00  8.0214E+002
 580.50  7.9832E+002
 581.00  8.0175E+002
 581.50  8.0890E+002
 582.00  8.1979E+002
 582.50  8.2763E+002
 583.00  8.3220E+002
 583.50  8.3815E+002
 584.00  8.4386E+002
 584.50  8.5264E+002
 585.00  8.6175E+002
 585.50  8.6170E+002
 586.00  8.5380E+002
 586.50  8.4639E+002
 587.00  8.4279E+002
 587.50  8.4282E+002
 588.00  8.4613E+002
 588.50  8.4679E+002
 589.00  8.4772E+002
 589.50  8.4630E+002
 590.00  8.4437E+002
 590.50  8.4349E+002
 591.00  8.4186E+002
 591.50  8.3781E+002
 592.00  8.3994E+002
 592.50  8.4606E+002
 593.00  8.4879E+002
 593.50  8.4978E+002
 594.00  8.4744E+002
 594.50  8.3886E+002
 595.00  8.2882E+002
 595.50  8.1856E+002
 596.00  8.1176E+002
 596.50  8.0886E+002
 597.00  8.0613E+002
 597.50  8.0361E+002
 598.00  8.0464E+002
 598.50  8.0059E+002
 599.00  7.9801E+002
 599.50  8.0318E+002
 600.00  8.1354E+002
 600.50  8.2447E+002
 601.00  8.3136E+002
 601.50  8.3527E+002
 602.00  8.3333E+002
 602.50  8.2664E+002
 603.00  8.2674E+002
 603.50  8.1950E+002
 604.00  8.1130E+002
 604.50  8.0880E+002
 605.00  8.1033E+002
 605.50  8.1801E+002
 606.00  8.3024E+002
 606.50  8.4175E+002
 607.00  8.4967E+002
 607.50  8.5451E+002
 608.00  8.5790E+002
 608.50  8.6086E+002
 609.00  8.6168E+002
 609.50  8.5512E+002
 610.00  8.4032E+002
 610.50  8.2624E+002
 611.00  8.1872E+002
 611.50  8.2211E+002
 612.00  8.3188E+002
 612.50  8.4238E+002
 613.00  8.4759E+002
 613.50  8.4855E+002
 614.00  8.4388E+002
 614.50  8.4307E+002
 615.00  8.4468E+002
 615.50  8.4414E+002
 616.00  8.4629E+002
 616.50  8.4944E+002
 617.00  8.4746E+002
 617.50  8.4510E+002
 618.00  8.4334E+002
 618.50  8.3923E+002
 619.00  8.3780E+002
 619.50  8.4250E+002
 620.00  8.5166E+002
 620.50  8.6196E+002
 621.00  8.6281E+002
 621.50  8.5489E+002
 622.00  8.4400E+002
 622.50  8.3110E+002
 623.00  8.2713E+002
 623.50  8.3000E+002
 624.00  8.2922E+002
 624.50  8.3606E+002
 625.00  8.4096E+002
 625.50  8.3393E+002
 626.00  8.3196E+002
 626.50  8.2412E+002
 627.00  8.0720E+002
 627.50  7.9537E+002
 628.00  7.9154E+002
 628.50  8.0205E+002
 629.00  8.1824E+002
 629.50  8.2762E+002
 630.00  8.4450E+002
 630.50  8.5988E+002
 631.00  8.6301E+002
 631.50  8.6531E+002
 632.00  8.6597E+002
 632.50  8.5854E+002
 633.00  8.4552E+002
 633.50  8.3980E+002
 634.00  8.4318E+002
 634.50  8.4255E+002
 635.00  8.4433E+002
 635.50  8.5608E+002
 636.00  8.6584E+002
 636.50  8.6780E+002
 637.00  8.6692E+002
 637.50  8.6358E+002
 638.00  8.5549E+002
 638.50  8.6049E+002
 639.00  8.6594E+002
 639.50  8.6670E+002
 640.00  8.6290E+002
 640.50  8.4517E+002
 641.00  8.2376E+002
 641.50  8.1444E+002
 642.00  8.1789E+002
 642.50  8.3364E+002
 643.00  8.5465E+002
 643.50  8.7198E+002
 644.00  8.7874E+002
 644.50  8.7218E+002
 645.00  8.5940E+002
 645.50  8.4662E+002
 646.00  8.3816E+002
 646.50  8.4174E+002
 647.00  8.5073E+002
 647.50  8.5597E+002
 648.00  8.5865E+002
 648.50  8.5047E+002
 649.00  8.3041E+002
 649.50  8.1722E+002
 650.00  8.0774E+002
 650.50  7.9810E+002
 651.00  7.9389E+002
 651.50  7.9571E+002
 652.00  8.0109E+002
 652.50  8.0722E+002
 653.00  8.0637E+002
 653.50  8.0204E+002
 654.00  7.9813E+002
 654.50  7.9913E+002
 655.00  8.0515E+002
 655.50  8.1880E+002
 656.00  8.3336E+002
 656.50  8.2957E+002
 657.00  8.1724E+002
 657.50  8.0543E+002
 658.00  7.9003E+002
 658.50  7.7686E+002
 659.00  7.8051E+002
 659.50  7.9668E+002
 660.00  8.0555E+002
 660.50  8.1657E+002
 661.00  8.3728E+002
 661.50  8.4983E+002
 662.00  8.5633E+002
 662.50  8.6317E+002
 663.00  8.6751E+002
 663.50  8.6683E+002
 664.00  8.6302E+002
 664.50  8.6467E+002
 665.00  8.7002E+002
 665.50  8.7345E+002
 666.00  8.7895E+002
 666.50  8.8598E+002
 667.00  8.9112E+002
 667.50  8.9315E+002
 668.00  8.9269E+002
 668.50  8.9207E+002
 669.00  8.8847E+002
 669.50  8.7952E+002
 670.00  8.6609E+002
 670.50  8.5205E+002
 671.00  8.3969E+002
 671.50  8.3254E+002
 672.00  8.3419E+002
 672.50  8.4410E+002
 673.00  8.5678E+002
 673.50  8.6648E+002
 674.00  8.7178E+002
 674.50  8.6949E+002
 675.00  8.5819E+002
 675.50  8.4391E+002
 676.00  8.3394E+002
 676.50  8.3407E+002
 677.00  8.3923E+002
 677.50  8.4506E+002
 678.00  8.4584E+002
 678.50  8.4293E+002
 679.00  8.3528E+002
 679.50  8.3652E+002
 680.00  8.4318E+002
 680.50  8.3458E+002
 681.00  8.2394E+002
 681.50  8.1172E+002
 682.00  8.0142E+002
 682.50  8.0844E+002
 683.00  8.1639E+002
 683.50  8.1758E+002
 684.00  8.2001E+002
 684.50  8.1494E+002
 685.00  8.0720E+002
 685.50  8.0476E+002
 686.00  8.0326E+002
 686.50  8.0083E+002
 687.00  8.0080E+002
 687.50  8.1287E+002
 688.00  8.2730E+002
 688.50  8.3232E+002
 689.00  8.2817E+002
 689.50  8.2223E+002
 690.00  8.2101E+002
 690.50  8.2066E+002
 691.00  8.3242E+002
 691.50  8.5390E+002
 692.00  8.6753E+002
 692.50  8.7067E+002
 693.00  8.6755E+002
 693.50  8.6106E+002
 694.00  8.5342E+002
 694.50  8.5324E+002
 695.00  8.6797E+002
 695.50  8.7307E+002
 696.00  8.6915E+002
 696.50  8.7051E+002
 697.00  8.6357E+002
 697.50  8.5495E+002
 698.00  8.5813E+002
 698.50  8.5926E+002
 699.00  8.6181E+002
 699.50  8.6920E+002
 700.00  8.6931E+002
 700.50  8.6548E+002
 701.00  8.6359E+002
 701.50  8.6453E+002
 702.00  8.6014E+002
 702.50  8.5047E+002
 703.00  8.4110E+002
 703.50  8.2567E+002
 704.00  8.1381E+002
 704.50  8.2197E+002
 705.00  8.3769E+002
 705.50  8.4896E+002
 706.00  8.7117E+002
 706.50  8.8167E+002
 707.00  8.7578E+002
 707.50  8.6241E+002
 708.00  8.4440E+002
 708.50  8.2978E+002
 709.00  8.2782E+002
 709.50  8.2929E+002
 710.00  8.3083E+002
 710.50  8.2890E+002
 711.00  8.2018E+002
 711.50  8.1842E+002
 712.00  8.2539E+002
 712.50  8.3421E+002
 713.00  8.4456E+002
 713.50  8.5054E+002
 714.00  8.5538E+002
 714.50  8.6236E+002
 715.00  8.6882E+002
 715.50  8.8240E+002
 716.00  8.9433E+002
 716.50  8.9243E+002
 717.00  8.9331E+002
 717.50  8.8527E+002
 718.00  8.6144E+002
 718.50  8.5009E+002
 719.00  8.4009E+002
 719.50  8.2416E+002
 720.00  8.2000E+002
 720.50  8.2035E+002
 721.00  8.2366E+002
 721.50  8.3489E+002
 722.00  8.4578E+002
 722.50  8.4907E+002
 723.00  8.4270E+002
 723.50  8.3224E+002
 724.00  8.3040E+002
 724.50  8.3002E+002
 725.00  8.2872E+002
 725.50  8.3315E+002
 726.00  8.3819E+002
 726.50  8.3988E+002
 727.00  8.5048E+002
 727.50  8.5813E+002
 728.00  8.5343E+002
 728.50  8.4559E+002
 729.00  8.3643E+002
 729.50  8.2524E+002
 730.00  8.1740E+002
 730.50  8.1646E+002
 731.00  8.2069E+002
 731.50  8.3837E+002
 732.00  8.5350E+002
 732.50  8.6589E+002
 733.00  8.7165E+002
 733.50  8.6284E+002
 734.00  8.4894E+002
 734.50  8.4087E+002
 735.00  8.3481E+002
 735.50  8.3190E+002
 736.00  8.3263E+002
 736.50  8.3486E+002
 737.00  8.3941E+002
 737.50  8.4136E+002
 738.00  8.4206E+002
 738.50  8.4494E+002
 739.00  8.4152E+002
 739.50  8.3504E+002
 740.00  8.3361E+002
 740.50  8.2982E+002
 741.00  8.2847E+002
 741.50  8.3112E+002
 742.00  8.3562E+002
 742.50  8.3816E+002
 743.00  8.4341E+002
 743.50  8.5878E+002
 744.00  8.7142E+002
 744.50  8.7771E+002
 745.00  8.8110E+002
 745.50  8.7111E+002
 746.00  8.5839E+002
 746.50  8.5545E+002
 747.00  8.5384E+002
 747.50  8.4750E+002
 748.00  8.4330E+002
 748.50  8.4300E+002
 749.00  8.3709E+002
 749.50  8.3362E+002
 750.00  8.3124E+002
 750.50  8.2226E+002
 751.00  8.2339E+002
 751.50  8.3052E+002
 752.00  8.3799E+002
 752.50  8.4523E+002
 753.00  8.4916E+002
 753.50  8.5184E+002
 754.00  8.5116E+002
 754.50  8.4465E+002
 755.00  8.3514E+002
 755.50  8.3109E+002
 756.00  8.3605E+002
 756.50  8.4572E+002
 757.00  8.5644E+002
 757.50  8.5641E+002
 758.00  8.4845E+002
 758.50  8.4717E+002
 759.00  8.4762E+002
 759.50  8.4995E+002
 760.00  8.5612E+002
 760.50  8.5015E+002
 761.00  8.3017E+002
 761.50  8.1218E+002
 762.00  8.0141E+002
 762.50  8.0199E+002
 763.00  8.1514E+002
 763.50  8.2913E+002
 764.00  8.3630E+002
 764.50  8.4441E+002
 765.00  8.6062E+002
 765.50  8.7573E+002
 766.00  8.8958E+002
 766.50  8.9071E+002
 767.00  8.8578E+002
 767.50  8.7753E+002
 768.00  8.6997E+002
 768.50  8.7031E+002
 769.00  8.7673E+002
 769.50  8.8227E+002
 770.00  8.7868E+002
 770.50  8.7295E+002
 771.00  8.6341E+002
 771.50  8.5500E+002
 772.00  8.5720E+002
 772.50  8.5877E+002
 773.00  8.6033E+002
 773.50  8.6459E+002
 774.00  8.6121E+002
 774.50  8.6248E+002
 775.00  8.6431E+002
 775.50  8.5977E+002
 776.00  8.6772E+002
 776.50  8.7592E+002
 777.00  8.7548E+002
 777.50  8.7172E+002
 778.00  8.5955E+002
 778.50  8.4652E+002
 779.00  8.4219E+002
 779.50  8.4036E+002
 780.00  8.4352E+002
 780.50  8.4598E+002
 781.00  8.4592E+002
 781.50  8.4415E+002
 782.00  8.3329E+002
 782.50  8.1806E+002
 783.00  8.0783E+002
 783.50  8.0912E+002
 784.00  8.2168E+002
 784.50  8.3183E+002
 785.00  8.3822E+002
 785.50  8.3639E+002
 786.00  8.2842E+002
 786.50  8.2697E+002
 787.00  8.2154E+002
 787.50  8.1660E+002
 788.00  8.1376E+002
 788.50  8.0555E+002
 789.00  8.0625E+002
 789.50  8.1568E+002
 790.00  8.2324E+002
 790.50  8.3072E+002
 791.00  8.3712E+002
 791.50  8.3544E+002
 792.00  8.4138E+002
 792.50  8.5620E+002
 793.00  8.6503E+002
 793.50  8.7006E+002
 794.00  8.7050E+002
 794.50  8.6937E+002
 795.00  8.6505E+002
 795.50  8.6046E+002
 796.00  8.5946E+002
 796.50  8.5159E+002
 797.00  8.4712E+002
 797.50  8.4805E+002
 798.00  8.4485E+002
 798.50  8.4426E+002
 799.00  8.4751E+002
 799.50  8.5341E+002
 800.00  8.6058E+002
 800.50  8.6774E+002
 801.00  8.7529E+002
 801.50  8.6464E+002
 802.00  8.5104E+002
 802.50  8.4783E+002
 803.00  8.4273E+002
 803.50  8.4583E+002
 804.00  8.4869E+002
 804.50  8.4091E+002
 805.00  8.3362E+002
 805.50  8.2774E+002
 806.00  8.2757E+002
 806.50  8.2778E+002
 807.00  8.2734E+002
 807.50  8.3996E+002
 808.00  8.5297E+002
 808.50  8.6239E+002
 809.00  8.6273E+002
 809.50  8.4395E+002
 810.00  8.2026E+002
 810.50  8.0710E+002
 811.00  8.1345E+002
 811.50  8.3666E+002
 812.00  8.5927E+002
 812.50  8.6363E+002
 813.00  8.5826E+002
 813.50  8.4493E+002
 814.00  8.4098E+002
 814.50  8.5753E+002
 815.00  8.6437E+002
 815.50  8.6563E+002
 816.00  8.5784E+002
 816.50  8.3833E+002
 817.00  8.2796E+002
 817.50  8.2716E+002
 818.00  8.3268E+002
 818.50  8.3924E+002
 819.00  8.3693E+002
 819.50  8.4136E+002
 820.00  8.4770E+002
 820.50  8.5117E+002
 821.00  8.6098E+002
 821.50  8.5246E+002
 822.00  8.4447E+002
 822.50  8.4963E+002
 823.00  8.4965E+002
 823.50  8.5326E+002
 824.00  8.4711E+002
 824.50  8.3364E+002
 825.00  8.3399E+002
 825.50  8.3753E+002
 826.00  8.3707E+002
 826.50  8.4046E+002
 827.00  8.3777E+002
 827.50  8.3338E+002
 828.00  8.4181E+002
 828.50  8.4593E+002
 829.00  8.5150E+002
 829.50  8.5519E+002
 830.00  8.4324E+002
 830.50  8.3001E+002
 831.00  8.1363E+002
 831.50  8.0290E+002
 832.00  8.1163E+002
 832.50  8.1810E+002
 833.00  8.2616E+002
 833.50  8.3561E+002
 834.00  8.4697E+002
 834.50  8.6927E+002
 835.00  8.8852E+002
 835.50  8.9328E+002
 836.00  8.8192E+002
 836.50  8.7473E+002
 837.00  8.6801E+002
 837.50  8.6759E+002
 838.00  8.6916E+002
 838.50  8.6289E+002
 839.00  8.6272E+002
 839.50  8.6807E+002
 840.00  8.7641E+002
 840.50  8.7042E+002
 841.00  8.6357E+002
 841.50  8.5715E+002
 842.00  8.4871E+002
 842.50  8.4543E+002
 843.00  8.3880E+002
 843.50  8.3416E+002
 844.00  8.3209E+002
 844.50  8.3670E+002
 845.00  8.4139E+002
 845.50  8.4292E+002
 846.00  8.4516E+002
 846.50  8.4372E+002
 847.00  8.4649E+002
 847.50  8.4562E+002
 848.00  8.3430E+002
 848.50  8.2156E+002
 849.00  8.1057E+002
 849.50  8.0942E+002
 850.00  8.1346E+002
 850.50  8.1747E+002
 851.00  8.2219E+002
 851.50  8.2400E+002
 852.00  8.3385E+002
 852.50  8.4034E+002
 853.00  8.4072E+002
 853.50  8.4136E+002
 854.00  8.3546E+002
 854.50  8.3345E+002
 855.00  8.3658E+002
 855.50  8.4550E+002
 856.00  8.5488E+002
 856.50  8.6400E+002
 857.00  8.6144E+002
 857.50  8.5553E+002
 858.00  8.5609E+002
 858.50  8.5963E+002
 859.00  8.6120E+002
 859.50  8.5884E+002
 860.00  8.5330E+002
 860.50  8.4459E+002
 861.00  8.3880E+002
 861.50  8.3514E+002
 862.00  8.4200E+002
 862.50  8.5918E+002
 863.00  8.7031E+002
 863.50  8.7492E+002
 864.00  8.7137E+002
 864.50  8.6324E+002
 865.00  8.6214E+002
 865.50  8.7594E+002
 866.00  8.9249E+002
 866.50  9.0464E+002
 867.00  9.1692E+002
 867.50  9.1097E+002
 868.00  8.9411E+002
 868.50  8.7931E+002
 869.00  8.6939E+002
 869.50  8.6431E+002
 870.00  8.5438E+002
 870.50  8.4225E+002
 871.00  8.3546E+002
 871.50  8.3004E+002
 872.00  8.3648E+002
 872.50  8.4894E+002
 873.00  8.3991E+002
 873.50  8.2975E+002
 874.00  8.2679E+002
 874.50  8.2021E+002
 875.00  8.2219E+002
 875.50  8.2830E+002
 876.00  8.3061E+002
 876.50  8.4055E+002
 877.00  8.5179E+002
 877.50  8.5768E+002
 878.00  8.5419E+002
 878.50  8.3600E+002
 879.00  8.2637E+002
 879.50  8.3217E+002
 880.00  8.4466E+002
 880.50  8.5637E+002
 881.00  8.6016E+002
 881.50  8.4705E+002
 882.00  8.3964E+002
 882.50  8.5201E+002
 883.00  8.6400E+002
 883.50  8.7406E+002
 884.00  8.7637E+002
 884.50  8.6499E+002
 885.00  8.5380E+002
 885.50  8.3927E+002
 886.00  8.2718E+002
 886.50  8.1897E+002
 887.00  8.2151E+002
 887.50  8.3912E+002
 888.00  8.5800E+002
 888.50  8.6886E+002
 889.00  8.6943E+002
 889.50  8.6803E+002
 890.00  8.6646E+002
 890.50  8.7297E+002
 891.00  8.8494E+002
 891.50  8.8588E+002
 892.00  8.8694E+002
 892.50  8.8128E+002
 893.00  8.6724E+002
 893.50  8.5642E+002
 894.00  8.5053E+002
 894.50  8.3707E+002
 895.00  8.1952E+002
 895.50  8.1166E+002
 896.00  8.0976E+002
 896.50  8.2395E+002
 897.00  8.3476E+002
 897.50  8.3391E+002
 898.00  8.3320E+002
 898.50  8.4390E+002
 899.00  8.6189E+002
 899.50  8.7784E+002
 900.00  8.8610E+002
 900.50  8.7147E+002
 901.00  8.6014E+002
 901.50  8.4857E+002
 902.00  8.4534E+002
 902.50  8.5337E+002
 903.00  8.6426E+002
 903.50  8.7259E+002
 904.00  8.8238E+002
 904.50  8.8520E+002
 905.00  8.8422E+002
 905.50  8.7943E+002
 906.00  8.6076E+002
 906.50  8.4724E+002
 907.00  8.3891E+002
 907.50  8.4189E+002
 908.00  8.4948E+002
 908.50  8.5318E+002
 909.00  8.4831E+002
 909.50  8.4039E+002
 910.00  8.3629E+002
 910.50  8.3865E+002
 911.00  8.4455E+002
 911.50  8.5583E+002
 912.00  8.6984E+002
 912.50  8.7622E+002
 913.00  8.7619E+002
 913.50  8.6610E+002
 914.00  8.5464E+002
 914.50  8.4516E+002
 915.00  8.3812E+002
 915.50  8.3477E+002
 916.00  8.3419E+002
 916.50  8.3429E+002
 917.00  8.2969E+002
 917.50  8.3815E+002
 918.00  8.4508E+002
 918.50  8.6439E+002
 919.00  8.8316E+002
 919.50  8.7882E+002
 920.00  8.7176E+002
 920.50  8.5321E+002
 921.00  8.3731E+002
 921.50  8.4152E+002
 922.00  8.4833E+002
 922.50  8.5151E+002
 923.00  8.5286E+002
 923.50  8.5100E+002
 924.00  8.4962E+002
 924.50  8.5872E+002
 925.00  8.6157E+002
 925.50  8.5441E+002
 926.00  8.4737E+002
 926.50  8.3969E+002
 927.00  8.5352E+002
 927.50  8.7201E+002
 928.00  8.8514E+002
 928.50  8.8771E+002
 929.00  8.7612E+002
 929.50  8.7547E+002
 930.00  8.8597E+002
 930.50  8.9321E+002
 931.00  8.8487E+002
 931.50  8.6736E+002
 932.00  8.6079E+002
 932.50  8.6250E+002
 933.00  8.7041E+002
 933.50  8.7716E+002
 934.00  8.6420E+002
 934.50  8.6494E+002
 935.00  8.7530E+002
 935.50  8.8130E+002
 936.00  8.8553E+002
 936.50  8.7949E+002
 937.00  8.6188E+002
 937.50  8.4721E+002
 938.00  8.3953E+002
 938.50  8.4079E+002
 939.00  8.5048E+002
 939.50  8.5705E+002
 940.00  8.5443E+002
 940.50  8.4758E+002
 941.00  8.3744E+002
 941.50  8.2784E+002
 942.00  8.2852E+002
 942.50  8.3570E+002
 943.00  8.7561E+002
 943.50  9.4933E+002
 944.00  1.0547E+003
 944.50  1.1928E+003
 945.00  1.3519E+003
 945.50  1.5216E+003
 946.00  1.7041E+003
 946.50  1.9163E+003
 947.00  2.1272E+003
 947.50  2.3206E+003
 948.00  2.4721E+003
 948.50  2.5893E+003
 949.00  2.6948E+003
 949.50  2.7940E+003
 950.00  2.8940E+003
 950.50  2.9742E+003
 951.00  3.0563E+003
 951.50  3.1168E+003
 952.00  3.1654E+003
 952.50  3.1701E+003
 953.00  3.1221E+003
 953.50  3.0026E+003
 954.00  2.7908E+003
 954.50  2.5090E+003
 955.00  2.1867E+003
 955.50  1.8607E+003
 956.00  1.5595E+003
 956.50  1.3106E+003
 957.00  1.1245E+003
 957.50  1.0054E+003
 958.00  9.4968E+002
 958.50  9.3178E+002
 959.00  9.1266E+002
 959.50  8.8602E+002
 960.00  8.6389E+002
 960.50  8.4314E+002
 961.00  8.3856E+002
 961.50  8.3230E+002
 962.00  8.2433E+002
 962.50  8.2855E+002
 963.00  8.3752E+002
 963.50  8.3995E+002
 964.00  8.5416E+002
 964.50  8.5237E+002
 965.00  8.4757E+002
 965.50  8.4158E+002
 966.00  8.2262E+002
 966.50  8.2103E+002
 967.00  8.2459E+002
 967.50  8.3404E+002
 968.00  8.4857E+002
 968.50  8.5496E+002
 969.00  8.6415E+002
 969.50  8.6980E+002
 970.00  8.7532E+002
 970.50  8.8197E+002
 971.00  8.7914E+002
 971.50  8.7171E+002
 972.00  8.6457E+002
 972.50  8.6368E+002
 973.00  8.7255E+002
 973.50  8.7788E+002
 974.00  8.7987E+002
 974.50  8.8436E+002
 975.00  8.7629E+002
 975.50  8.8113E+002
 976.00  8.8263E+002
 976.50  8.8224E+002
 977.00  8.9038E+002
 977.50  8.8686E+002
 978.00  8.8251E+002
 978.50  8.8107E+002
 979.00  8.7636E+002
 979.50  8.6415E+002
 980.00  8.5016E+002
 980.50  8.3060E+002
 981.00  8.2640E+002
 981.50  8.3021E+002
 982.00  8.3774E+002
 982.50  8.5014E+002
 983.00  8.5591E+002
 983.50  8.5803E+002
 984.00  8.5046E+002
 984.50  8.4282E+002
 985.00  8.2837E+002
 985.50  8.2639E+002
 986.00  8.2470E+002
 986.50  8.2811E+002
 987.00  8.3751E+002
 987.50  8.3792E+002
 988.00  8.4205E+002
 988.50  8.5252E+002
 989.00  8.6146E+002
 989.50  8.7567E+002
 990.00  8.8421E+002
 990.50  8.8940E+002
 991.00  8.8765E+002
 991.50  8.7185E+002
 992.00  8.5474E+002
 992.50  8.4585E+002
 993.00  8.5461E+002
 993.50  8.6360E+002
 994.00  8.7423E+002
 994.50  8.7585E+002
 995.00  8.7898E+002
 995.50  8.7592E+002
 996.00  8.6088E+002
 996.50  8.4736E+002
 997.00  8.4102E+002
 997.50  8.4330E+002
 998.00  8.5436E+002
 998.50  8.6450E+002
 999.00  8.6279E+002
 999.50  8.6060E+002
1000.00  8.5772E+002
1000.50  8.6490E+002
1001.00  8.8214E+002
1001.50  8.8663E+002
1002.00  8.8860E+002
1002.50  8.7565E+002
1003.00  8.6157E+002
1003.50  8.4361E+002
1004.00  8.3717E+002
1004.50  8.3455E+002
1005.00  8.3492E+002
1005.50  8.4368E+002
1006.00  8.4508E+002
1006.50  8.5315E+002
1007.00  8.4461E+002
1007.50  8.3071E+002
1008.00  8.2894E+002
1008.50  8.3761E+002
1009.00  8.4592E+002
1009.50  8.4032E+002
1010.00  8.1831E+002
1010.50  7.9113E+002
1011.00  7.8767E+002
1011.50  7.9785E+002
1012.00  8.2528E+002
1012.50  8.4654E+002
1013.00  8.5408E+002
1013.50  8.4966E+002
1014.00  8.4482E+002
1014.50  8.4412E+002
1015.00  8.4497E+002
1015.50  8.3678E+002
1016.00  8.4051E+002
1016.50  8.4740E+002
1017.00  8.6236E+002
1017.50  8.7602E+002
1018.00  8.8066E+002
1018.50  8.7899E+002
1019.00  8.7345E+002
1019.50  8.6927E+002
1020.00  8.5785E+002
1020.50  8.6142E+002
1021.00  8.5397E+002
1021.50  8.4419E+002
1022.00  8.4569E+002
1022.50  8.5149E+002
1023.00  8.5507E+002
1023.50  8.4477E+002
1024.00  8.3741E+002
1024.50  8.3192E+002
1025.00  8.4156E+002
1025.50  8.4260E+002
1026.00  8.2804E+002
1026.50  8.2028E+002
1027.00  8.1963E+002
1027.50  8.3649E+002
1028.00  8.6159E+002
1028.50  8.7394E+002
1029.00  8.7164E+002
1029.50  8.6235E+002
1030.00  8.5262E+002
1030.50  8.4392E+002
1031.00  8.3472E+002
1031.50  8.3081E+002
1032.00  8.3911E+002
1032.50  8.5317E+002
1033.00  8.4847E+002
1033.50  8.3025E+002
1034.00  7.9737E+002
1034.50  7.9265E+002
1035.00  8.1478E+002
1035.50  8.4298E+002
1036.00  8.6925E+002
1036.50  8.7876E+002
1037.00  8.8643E+002
1037.50  9.0001E+002
1038.00  9.0628E+002
1038.50  8.9652E+002
1039.00  8.7737E+002
1039.50  8.4606E+002
1040.00  8.2351E+002
1040.50  8.2452E+002
1041.00  8.2745E+002
1041.50  8.3492E+002
1042.00  8.3040E+002
1042.50  8.2727E+002
1043.00  8.3086E+002
1043.50  8.4480E+002
1044.00  8.5691E+002
1044.50  8.5476E+002
1045.00  8.4303E+002
1045.50  8.2472E+002
1046.00  8.1618E+002
1046.50  8.0247E+002
1047.00  8.0363E+002
1047.50  8.1761E+002
1048.00  8.2974E+002
1048.50  8.5286E+002
1049.00  8.5020E+002
1049.50  8.5656E+002
1050.00  8.5572E+002
1050.50  8.4639E+002
1051.00  8.5034E+002
1051.50  8.4914E+002
1052.00  8.5639E+002
1052.50  8.6080E+002
1053.00  8.6000E+002
1053.50  8.5742E+002
1054.00  8.4563E+002
1054.50  8.2866E+002
1055.00  8.3016E+002
1055.50  8.3542E+002
1056.00  8.4910E+002
1056.50  8.4373E+002
1057.00  8.3819E+002
1057.50  8.4545E+002
1058.00  8.6292E+002
1058.50  8.7406E+002
1059.00  8.5992E+002
1059.50  8.4355E+002
1060.00  8.4074E+002
1060.50  8.5330E+002
1061.00  8.5711E+002
1061.50  8.5770E+002
1062.00  8.4907E+002
1062.50  8.3477E+002
1063.00  8.2949E+002
1063.50  8.2470E+002
1064.00  8.2739E+002
1064.50  8.2526E+002
1065.00  8.2623E+002
1065.50  8.3275E+002
1066.00  8.3829E+002
1066.50  8.4341E+002
1067.00  8.4560E+002
1067.50  8.4750E+002
1068.00  8.3670E+002
1068.50  8.1867E+002
1069.00  8.1015E+002
1069.50  8.1410E+002
1070.00  8.3496E+002
1070.50  8.5126E+002
1071.00  8.7273E+002
1071.50  8.7396E+002
1072.00  8.5602E+002
1072.50  6.9066E+002
