" File: Users\LabUser\Documents\MonochromatorCal
"  SCOPE->  Wave:693.48nm  Pix:1050  Val:861.000  Time:100ms  Avg:1  Sm:1  Sg:0  Tc:off  SNAP  Xt:3  Ch:1  Xtrig  
 191.00  8.6680E+002
 191.50  8.7193E+002
 192.00  8.7100E+002
 192.50  8.7100E+002
 193.00  8.6582E+002
 193.50  8.6818E+002
 194.00  8.8284E+002
 194.50  8.8205E+002
 195.00  8.5641E+002
 195.50  8.2147E+002
 196.00  7.9846E+002
 196.50  8.1253E+002
 197.00  8.5715E+002
 197.50  8.8111E+002
 198.00  8.6375E+002
 198.50  8.2416E+002
 199.00  8.1364E+002
 199.50  8.3700E+002
 200.00  8.5570E+002
 200.50  8.7092E+002
 201.00  8.4723E+002
 201.50  8.2767E+002
 202.00  8.3449E+002
 202.50  8.3951E+002
 203.00  8.4095E+002
 203.50  8.4124E+002
 204.00  8.3715E+002
 204.50  8.3235E+002
 205.00  8.2928E+002
 205.50  8.2368E+002
 206.00  8.1700E+002
 206.50  8.1658E+002
 207.00  8.2193E+002
 207.50  8.2981E+002
 208.00  8.4280E+002
 208.50  8.5235E+002
 209.00  8.5506E+002
 209.50  8.5744E+002
 210.00  8.5887E+002
 210.50  8.5606E+002
 211.00  8.5487E+002
 211.50  8.5772E+002
 212.00  8.5933E+002
 212.50  8.5667E+002
 213.00  8.5420E+002
 213.50  8.5636E+002
 214.00  8.6029E+002
 214.50  8.6788E+002
 215.00  8.7339E+002
 215.50  8.7978E+002
 216.00  8.8599E+002
 216.50  8.8921E+002
 217.00  8.8911E+002
 217.50  8.9947E+002
 218.00  9.1595E+002
 218.50  9.2224E+002
 219.00  9.2167E+002
 219.50  9.1755E+002
 220.00  9.0158E+002
 220.50  8.7372E+002
 221.00  8.4993E+002
 221.50  8.3952E+002
 222.00  8.3447E+002
 222.50  8.3276E+002
 223.00  8.4004E+002
 223.50  8.4616E+002
 224.00  8.4238E+002
 224.50  8.3635E+002
 225.00  8.2853E+002
 225.50  8.1178E+002
 226.00  7.9385E+002
 226.50  7.8586E+002
 227.00  7.8493E+002
 227.50  7.8556E+002
 228.00  7.8679E+002
 228.50  7.9068E+002
 229.00  7.9618E+002
 229.50  8.0028E+002
 230.00  8.0266E+002
 230.50  8.0610E+002
 231.00  8.1284E+002
 231.50  8.1740E+002
 232.00  8.1818E+002
 232.50  8.1681E+002
 233.00  8.2344E+002
 233.50  8.3214E+002
 234.00  8.3672E+002
 234.50  8.3821E+002
 235.00  8.3824E+002
 235.50  8.3142E+002
 236.00  8.2093E+002
 236.50  8.1152E+002
 237.00  8.0415E+002
 237.50  7.9899E+002
 238.00  7.9823E+002
 238.50  8.0289E+002
 239.00  8.1183E+002
 239.50  8.2416E+002
 240.00  8.3850E+002
 240.50  8.5268E+002
 241.00  8.6333E+002
 241.50  8.6324E+002
 242.00  8.5667E+002
 242.50  8.4851E+002
 243.00  8.4034E+002
 243.50  8.3873E+002
 244.00  8.4101E+002
 244.50  8.4707E+002
 245.00  8.5265E+002
 245.50  8.5485E+002
 246.00  8.5560E+002
 246.50  8.6350E+002
 247.00  8.7480E+002
 247.50  8.8257E+002
 248.00  8.8724E+002
 248.50  8.8894E+002
 249.00  8.8572E+002
 249.50  8.8104E+002
 250.00  8.7913E+002
 250.50  8.7782E+002
 251.00  8.7503E+002
 251.50  8.7061E+002
 252.00  8.6456E+002
 252.50  8.5698E+002
 253.00  8.5050E+002
 253.50  8.4158E+002
 254.00  8.3208E+002
 254.50  8.2407E+002
 255.00  8.1896E+002
 255.50  8.1589E+002
 256.00  8.1577E+002
 256.50  8.1904E+002
 257.00  8.2072E+002
 257.50  8.1681E+002
 258.00  8.1065E+002
 258.50  8.0838E+002
 259.00  8.0926E+002
 259.50  8.1046E+002
 260.00  8.1242E+002
 260.50  8.1336E+002
 261.00  8.1177E+002
 261.50  8.0906E+002
 262.00  8.1088E+002
 262.50  8.1580E+002
 263.00  8.2072E+002
 263.50  8.2925E+002
 264.00  8.4054E+002
 264.50  8.4441E+002
 265.00  8.4387E+002
 265.50  8.4432E+002
 266.00  8.4473E+002
 266.50  8.4480E+002
 267.00  8.4421E+002
 267.50  8.4316E+002
 268.00  8.4464E+002
 268.50  8.4830E+002
 269.00  8.5218E+002
 269.50  8.5710E+002
 270.00  8.6118E+002
 270.50  8.6258E+002
 271.00  8.6305E+002
 271.50  8.6215E+002
 272.00  8.5822E+002
 272.50  8.5339E+002
 273.00  8.4931E+002
 273.50  8.4353E+002
 274.00  8.3234E+002
 274.50  8.2247E+002
 275.00  8.1802E+002
 275.50  8.2243E+002
 276.00  8.2674E+002
 276.50  8.3693E+002
 277.00  8.5255E+002
 277.50  8.7083E+002
 278.00  8.7899E+002
 278.50  8.8016E+002
 279.00  8.7801E+002
 279.50  8.6904E+002
 280.00  8.5104E+002
 280.50  8.3540E+002
 281.00  8.2953E+002
 281.50  8.2617E+002
 282.00  8.2047E+002
 282.50  8.1614E+002
 283.00  8.1744E+002
 283.50  8.2081E+002
 284.00  8.2205E+002
 284.50  8.2552E+002
 285.00  8.3411E+002
 285.50  8.4018E+002
 286.00  8.3765E+002
 286.50  8.3369E+002
 287.00  8.3011E+002
 287.50  8.2737E+002
 288.00  8.2712E+002
 288.50  8.2666E+002
 289.00  8.2792E+002
 289.50  8.3813E+002
 290.00  8.4200E+002
 290.50  8.3814E+002
 291.00  8.3856E+002
 291.50  8.4112E+002
 292.00  8.3759E+002
 292.50  8.3084E+002
 293.00  8.2896E+002
 293.50  8.3018E+002
 294.00  8.2810E+002
 294.50  8.2664E+002
 295.00  8.2815E+002
 295.50  8.2337E+002
 296.00  8.1363E+002
 296.50  8.0882E+002
 297.00  8.0753E+002
 297.50  8.0742E+002
 298.00  8.1274E+002
 298.50  8.1880E+002
 299.00  8.1696E+002
 299.50  8.1084E+002
 300.00  8.0766E+002
 300.50  8.0959E+002
 301.00  8.1739E+002
 301.50  8.2804E+002
 302.00  8.3794E+002
 302.50  8.4649E+002
 303.00  8.5101E+002
 303.50  8.4929E+002
 304.00  8.4360E+002
 304.50  8.3810E+002
 305.00  8.3688E+002
 305.50  8.3240E+002
 306.00  8.2374E+002
 306.50  8.2004E+002
 307.00  8.1923E+002
 307.50  8.1248E+002
 308.00  8.0747E+002
 308.50  8.0858E+002
 309.00  8.1955E+002
 309.50  8.3231E+002
 310.00  8.4372E+002
 310.50  8.5374E+002
 311.00  8.5899E+002
 311.50  8.5769E+002
 312.00  8.5359E+002
 312.50  8.5395E+002
 313.00  8.5958E+002
 313.50  8.6531E+002
 314.00  8.6613E+002
 314.50  8.6551E+002
 315.00  8.6790E+002
 315.50  8.7095E+002
 316.00  8.7170E+002
 316.50  8.6731E+002
 317.00  8.5576E+002
 317.50  8.3761E+002
 318.00  8.1751E+002
 318.50  8.0420E+002
 319.00  8.0230E+002
 319.50  8.1070E+002
 320.00  8.2321E+002
 320.50  8.3439E+002
 321.00  8.4111E+002
 321.50  8.4217E+002
 322.00  8.3591E+002
 322.50  8.2867E+002
 323.00  8.2478E+002
 323.50  8.2004E+002
 324.00  8.2096E+002
 324.50  8.3328E+002
 325.00  8.4448E+002
 325.50  8.4758E+002
 326.00  8.5493E+002
 326.50  8.6362E+002
 327.00  8.6395E+002
 327.50  8.6121E+002
 328.00  8.5317E+002
 328.50  8.4130E+002
 329.00  8.2764E+002
 329.50  8.1685E+002
 330.00  8.1347E+002
 330.50  8.2080E+002
 331.00  8.2994E+002
 331.50  8.3832E+002
 332.00  8.4839E+002
 332.50  8.5929E+002
 333.00  8.7173E+002
 333.50  8.8201E+002
 334.00  8.8648E+002
 334.50  8.8259E+002
 335.00  8.7214E+002
 335.50  8.6100E+002
 336.00  8.5475E+002
 336.50  8.5299E+002
 337.00  8.5756E+002
 337.50  8.6516E+002
 338.00  8.6473E+002
 338.50  8.5813E+002
 339.00  8.5137E+002
 339.50  8.4320E+002
 340.00  8.3488E+002
 340.50  8.2816E+002
 341.00  8.2227E+002
 341.50  8.2118E+002
 342.00  8.2884E+002
 342.50  8.4196E+002
 343.00  8.6023E+002
 343.50  8.8197E+002
 344.00  8.9722E+002
 344.50  9.0253E+002
 345.00  9.0225E+002
 345.50  8.9774E+002
 346.00  8.8979E+002
 346.50  8.8441E+002
 347.00  8.8121E+002
 347.50  8.7368E+002
 348.00  8.6514E+002
 348.50  8.5827E+002
 349.00  8.5319E+002
 349.50  8.4941E+002
 350.00  8.4862E+002
 350.50  8.4726E+002
 351.00  8.4396E+002
 351.50  8.3574E+002
 352.00  8.2632E+002
 352.50  8.2476E+002
 353.00  8.2986E+002
 353.50  8.3597E+002
 354.00  8.4665E+002
 354.50  8.5807E+002
 355.00  8.5822E+002
 355.50  8.4823E+002
 356.00  8.3899E+002
 356.50  8.3165E+002
 357.00  8.2836E+002
 357.50  8.2916E+002
 358.00  8.3604E+002
 358.50  8.4969E+002
 359.00  8.6242E+002
 359.50  8.6443E+002
 360.00  8.6160E+002
 360.50  8.5695E+002
 361.00  8.5071E+002
 361.50  8.4713E+002
 362.00  8.4645E+002
 362.50  8.4514E+002
 363.00  8.4425E+002
 363.50  8.4034E+002
 364.00  8.3389E+002
 364.50  8.3526E+002
 365.00  8.4094E+002
 365.50  8.4828E+002
 366.00  8.6059E+002
 366.50  8.7508E+002
 367.00  8.8567E+002
 367.50  8.9359E+002
 368.00  9.0024E+002
 368.50  8.9664E+002
 369.00  8.8486E+002
 369.50  8.7291E+002
 370.00  8.6567E+002
 370.50  8.5708E+002
 371.00  8.4788E+002
 371.50  8.3800E+002
 372.00  8.2480E+002
 372.50  8.1801E+002
 373.00  8.1870E+002
 373.50  8.3125E+002
 374.00  8.5092E+002
 374.50  8.6550E+002
 375.00  8.7072E+002
 375.50  8.7661E+002
 376.00  8.7686E+002
 376.50  8.6904E+002
 377.00  8.6011E+002
 377.50  8.5462E+002
 378.00  8.4425E+002
 378.50  8.3576E+002
 379.00  8.3350E+002
 379.50  8.3865E+002
 380.00  8.4098E+002
 380.50  8.4004E+002
 381.00  8.4163E+002
 381.50  8.4263E+002
 382.00  8.3572E+002
 382.50  8.2570E+002
 383.00  8.2206E+002
 383.50  8.1120E+002
 384.00  7.9981E+002
 384.50  8.0057E+002
 385.00  8.0970E+002
 385.50  8.1679E+002
 386.00  8.2520E+002
 386.50  8.3309E+002
 387.00  8.3830E+002
 387.50  8.4012E+002
 388.00  8.4221E+002
 388.50  8.4547E+002
 389.00  8.4933E+002
 389.50  8.5361E+002
 390.00  8.5533E+002
 390.50  8.4736E+002
 391.00  8.3883E+002
 391.50  8.3663E+002
 392.00  8.3088E+002
 392.50  8.2562E+002
 393.00  8.3203E+002
 393.50  8.4528E+002
 394.00  8.5626E+002
 394.50  8.6259E+002
 395.00  8.6800E+002
 395.50  8.7033E+002
 396.00  8.6286E+002
 396.50  8.5290E+002
 397.00  8.4720E+002
 397.50  8.4563E+002
 398.00  8.4672E+002
 398.50  8.4687E+002
 399.00  8.4564E+002
 399.50  8.4544E+002
 400.00  8.4289E+002
 400.50  8.3680E+002
 401.00  8.2948E+002
 401.50  8.2498E+002
 402.00  8.2600E+002
 402.50  8.2264E+002
 403.00  8.1920E+002
 403.50  8.2337E+002
 404.00  8.2696E+002
 404.50  8.2777E+002
 405.00  8.3384E+002
 405.50  8.3888E+002
 406.00  8.4172E+002
 406.50  8.4857E+002
 407.00  8.5351E+002
 407.50  8.5480E+002
 408.00  8.5781E+002
 408.50  8.6133E+002
 409.00  8.6295E+002
 409.50  8.6105E+002
 410.00  8.5300E+002
 410.50  8.4289E+002
 411.00  8.3298E+002
 411.50  8.2325E+002
 412.00  8.1837E+002
 412.50  8.1867E+002
 413.00  8.2103E+002
 413.50  8.2571E+002
 414.00  8.2979E+002
 414.50  8.3390E+002
 415.00  8.4151E+002
 415.50  8.4789E+002
 416.00  8.4870E+002
 416.50  8.4609E+002
 417.00  8.3999E+002
 417.50  8.3136E+002
 418.00  8.2092E+002
 418.50  8.1183E+002
 419.00  8.0766E+002
 419.50  8.1158E+002
 420.00  8.2377E+002
 420.50  8.4453E+002
 421.00  8.6142E+002
 421.50  8.6871E+002
 422.00  8.7387E+002
 422.50  8.7198E+002
 423.00  8.6571E+002
 423.50  8.6591E+002
 424.00  8.6935E+002
 424.50  8.6485E+002
 425.00  8.6363E+002
 425.50  8.5607E+002
 426.00  8.4009E+002
 426.50  8.3095E+002
 427.00  8.3563E+002
 427.50  8.4060E+002
 428.00  8.5195E+002
 428.50  8.6639E+002
 429.00  8.7987E+002
 429.50  8.8929E+002
 430.00  8.9040E+002
 430.50  8.8696E+002
 431.00  8.7600E+002
 431.50  8.5714E+002
 432.00  8.4740E+002
 432.50  8.4675E+002
 433.00  8.4494E+002
 433.50  8.4921E+002
 434.00  8.5840E+002
 434.50  8.5378E+002
 435.00  8.4535E+002
 435.50  8.4307E+002
 436.00  8.3607E+002
 436.50  8.2654E+002
 437.00  8.2606E+002
 437.50  8.2607E+002
 438.00  8.2086E+002
 438.50  8.1717E+002
 439.00  8.1202E+002
 439.50  8.0056E+002
 440.00  7.9016E+002
 440.50  7.8782E+002
 441.00  7.9148E+002
 441.50  7.9957E+002
 442.00  8.1241E+002
 442.50  8.2234E+002
 443.00  8.2751E+002
 443.50  8.2924E+002
 444.00  8.2922E+002
 444.50  8.2975E+002
 445.00  8.3454E+002
 445.50  8.4419E+002
 446.00  8.5526E+002
 446.50  8.6411E+002
 447.00  8.7272E+002
 447.50  8.8121E+002
 448.00  8.9464E+002
 448.50  9.1199E+002
 449.00  9.3428E+002
 449.50  9.6362E+002
 450.00  9.9566E+002
 450.50  1.0189E+003
 451.00  1.0331E+003
 451.50  1.0302E+003
 452.00  1.0103E+003
 452.50  9.8846E+002
 453.00  9.6371E+002
 453.50  9.3584E+002
 454.00  9.1565E+002
 454.50  9.0200E+002
 455.00  8.9204E+002
 455.50  8.9379E+002
 456.00  9.0572E+002
 456.50  9.1577E+002
 457.00  9.1651E+002
 457.50  9.0870E+002
 458.00  8.9397E+002
 458.50  8.7373E+002
 459.00  8.5680E+002
 459.50  8.4526E+002
 460.00  8.3687E+002
 460.50  8.3525E+002
 461.00  8.4487E+002
 461.50  8.5221E+002
 462.00  8.5254E+002
 462.50  8.5103E+002
 463.00  8.4423E+002
 463.50  8.3561E+002
 464.00  8.3929E+002
 464.50  8.4746E+002
 465.00  8.5508E+002
 465.50  8.6287E+002
 466.00  8.6421E+002
 466.50  8.5846E+002
 467.00  8.5060E+002
 467.50  8.4218E+002
 468.00  8.3757E+002
 468.50  8.3594E+002
 469.00  8.3753E+002
 469.50  8.4039E+002
 470.00  8.4321E+002
 470.50  8.3965E+002
 471.00  8.2697E+002
 471.50  8.1484E+002
 472.00  8.1243E+002
 472.50  8.1048E+002
 473.00  8.1057E+002
 473.50  8.1864E+002
 474.00  8.2420E+002
 474.50  8.2233E+002
 475.00  8.2132E+002
 475.50  8.3049E+002
 476.00  8.4129E+002
 476.50  8.5323E+002
 477.00  8.6417E+002
 477.50  8.6880E+002
 478.00  8.7242E+002
 478.50  8.7106E+002
 479.00  8.6184E+002
 479.50  8.5134E+002
 480.00  8.4069E+002
 480.50  8.3179E+002
 481.00  8.3241E+002
 481.50  8.4324E+002
 482.00  8.5760E+002
 482.50  8.6493E+002
 483.00  8.6552E+002
 483.50  8.6238E+002
 484.00  8.5366E+002
 484.50  8.4627E+002
 485.00  8.4658E+002
 485.50  8.5187E+002
 486.00  8.5444E+002
 486.50  8.5529E+002
 487.00  8.5811E+002
 487.50  8.6234E+002
 488.00  8.6569E+002
 488.50  8.6854E+002
 489.00  8.6951E+002
 489.50  8.6316E+002
 490.00  8.5192E+002
 490.50  8.4171E+002
 491.00  8.3527E+002
 491.50  8.3140E+002
 492.00  8.2314E+002
 492.50  8.1406E+002
 493.00  8.1271E+002
 493.50  8.1430E+002
 494.00  8.1961E+002
 494.50  8.3028E+002
 495.00  8.3178E+002
 495.50  8.3232E+002
 496.00  8.3918E+002
 496.50  8.4476E+002
 497.00  8.4968E+002
 497.50  8.5321E+002
 498.00  8.4957E+002
 498.50  8.4199E+002
 499.00  8.3124E+002
 499.50  8.2262E+002
 500.00  8.1564E+002
 500.50  8.1182E+002
 501.00  8.2203E+002
 501.50  8.3862E+002
 502.00  8.5208E+002
 502.50  8.6755E+002
 503.00  8.7219E+002
 503.50  8.6483E+002
 504.00  8.6062E+002
 504.50  8.5722E+002
 505.00  8.5250E+002
 505.50  8.5448E+002
 506.00  8.5484E+002
 506.50  8.5432E+002
 507.00  8.6121E+002
 507.50  8.6593E+002
 508.00  8.6247E+002
 508.50  8.6283E+002
 509.00  8.6641E+002
 509.50  8.6632E+002
 510.00  8.7031E+002
 510.50  8.7300E+002
 511.00  8.6868E+002
 511.50  8.6656E+002
 512.00  8.6778E+002
 512.50  8.6911E+002
 513.00  8.7235E+002
 513.50  8.7528E+002
 514.00  8.7706E+002
 514.50  8.7630E+002
 515.00  8.6921E+002
 515.50  8.6668E+002
 516.00  8.6035E+002
 516.50  8.4258E+002
 517.00  8.2566E+002
 517.50  8.1655E+002
 518.00  8.0932E+002
 518.50  8.0899E+002
 519.00  8.1761E+002
 519.50  8.2166E+002
 520.00  8.2149E+002
 520.50  8.2782E+002
 521.00  8.2742E+002
 521.50  8.2333E+002
 522.00  8.3119E+002
 522.50  8.3850E+002
 523.00  8.3438E+002
 523.50  8.3107E+002
 524.00  8.2658E+002
 524.50  8.1629E+002
 525.00  8.0397E+002
 525.50  7.9664E+002
 526.00  7.9844E+002
 526.50  8.0603E+002
 527.00  8.1903E+002
 527.50  8.3795E+002
 528.00  8.5223E+002
 528.50  8.5243E+002
 529.00  8.4042E+002
 529.50  8.3031E+002
 530.00  8.1745E+002
 530.50  8.0606E+002
 531.00  8.0870E+002
 531.50  8.2263E+002
 532.00  8.3674E+002
 532.50  8.5551E+002
 533.00  8.7258E+002
 533.50  8.7933E+002
 534.00  8.7961E+002
 534.50  8.7617E+002
 535.00  8.6890E+002
 535.50  8.5794E+002
 536.00  8.4509E+002
 536.50  8.3995E+002
 537.00  8.4110E+002
 537.50  8.3969E+002
 538.00  8.4366E+002
 538.50  8.5601E+002
 539.00  8.6508E+002
 539.50  8.7193E+002
 540.00  8.8054E+002
 540.50  8.8475E+002
 541.00  8.8025E+002
 541.50  8.7464E+002
 542.00  8.7110E+002
 542.50  8.6749E+002
 543.00  8.6140E+002
 543.50  8.5767E+002
 544.00  8.5908E+002
 544.50  8.6470E+002
 545.00  8.7126E+002
 545.50  8.7131E+002
 546.00  8.6324E+002
 546.50  8.5046E+002
 547.00  8.4137E+002
 547.50  8.3969E+002
 548.00  8.4371E+002
 548.50  8.5388E+002
 549.00  8.6354E+002
 549.50  8.6065E+002
 550.00  8.5298E+002
 550.50  8.4417E+002
 551.00  8.2717E+002
 551.50  8.1326E+002
 552.00  8.0831E+002
 552.50  8.0688E+002
 553.00  8.1023E+002
 553.50  8.1685E+002
 554.00  8.2049E+002
 554.50  8.2371E+002
 555.00  8.2717E+002
 555.50  8.3144E+002
 556.00  8.3580E+002
 556.50  8.3808E+002
 557.00  8.3966E+002
 557.50  8.4101E+002
 558.00  8.4473E+002
 558.50  8.5032E+002
 559.00  8.5522E+002
 559.50  8.5935E+002
 560.00  8.4998E+002
 560.50  8.3485E+002
 561.00  8.3057E+002
 561.50  8.2841E+002
 562.00  8.3079E+002
 562.50  8.4354E+002
 563.00  8.4785E+002
 563.50  8.4422E+002
 564.00  8.4092E+002
 564.50  8.3806E+002
 565.00  8.4073E+002
 565.50  8.4717E+002
 566.00  8.5228E+002
 566.50  8.5980E+002
 567.00  8.6711E+002
 567.50  8.6550E+002
 568.00  8.6794E+002
 568.50  8.6914E+002
 569.00  8.6398E+002
 569.50  8.6279E+002
 570.00  8.6638E+002
 570.50  8.6435E+002
 571.00  8.6320E+002
 571.50  8.6541E+002
 572.00  8.6346E+002
 572.50  8.5533E+002
 573.00  8.4926E+002
 573.50  8.4399E+002
 574.00  8.4211E+002
 574.50  8.3998E+002
 575.00  8.3737E+002
 575.50  8.3768E+002
 576.00  8.3391E+002
 576.50  8.2299E+002
 577.00  8.1372E+002
 577.50  8.0944E+002
 578.00  8.1033E+002
 578.50  8.1928E+002
 579.00  8.2679E+002
 579.50  8.3288E+002
 580.00  8.2702E+002
 580.50  8.1266E+002
 581.00  8.0762E+002
 581.50  8.1054E+002
 582.00  8.1602E+002
 582.50  8.2786E+002
 583.00  8.4006E+002
 583.50  8.4734E+002
 584.00  8.5379E+002
 584.50  8.5444E+002
 585.00  8.4424E+002
 585.50  8.2982E+002
 586.00  8.2018E+002
 586.50  8.1525E+002
 587.00  8.1749E+002
 587.50  8.2439E+002
 588.00  8.2235E+002
 588.50  8.1135E+002
 589.00  8.0876E+002
 589.50  8.1506E+002
 590.00  8.2400E+002
 590.50  8.3683E+002
 591.00  8.4986E+002
 591.50  8.5485E+002
 592.00  8.6020E+002
 592.50  8.6655E+002
 593.00  8.6571E+002
 593.50  8.6365E+002
 594.00  8.6129E+002
 594.50  8.5333E+002
 595.00  8.4529E+002
 595.50  8.4194E+002
 596.00  8.4236E+002
 596.50  8.4407E+002
 597.00  8.4826E+002
 597.50  8.5778E+002
 598.00  8.6375E+002
 598.50  8.6079E+002
 599.00  8.5801E+002
 599.50  8.5967E+002
 600.00  8.5704E+002
 600.50  8.4851E+002
 601.00  8.4225E+002
 601.50  8.3836E+002
 602.00  8.3053E+002
 602.50  8.2789E+002
 603.00  8.3333E+002
 603.50  8.3574E+002
 604.00  8.3574E+002
 604.50  8.4255E+002
 605.00  8.5112E+002
 605.50  8.5511E+002
 606.00  8.5176E+002
 606.50  8.4716E+002
 607.00  8.4256E+002
 607.50  8.3011E+002
 608.00  8.2178E+002
 608.50  8.2091E+002
 609.00  8.1797E+002
 609.50  8.1506E+002
 610.00  8.2175E+002
 610.50  8.3511E+002
 611.00  8.4496E+002
 611.50  8.5171E+002
 612.00  8.6074E+002
 612.50  8.6060E+002
 613.00  8.4844E+002
 613.50  8.3903E+002
 614.00  8.3296E+002
 614.50  8.2932E+002
 615.00  8.3561E+002
 615.50  8.5111E+002
 616.00  8.6402E+002
 616.50  8.7617E+002
 617.00  8.8586E+002
 617.50  8.8659E+002
 618.00  8.8560E+002
 618.50  8.8286E+002
 619.00  8.7818E+002
 619.50  8.7988E+002
 620.00  8.8015E+002
 620.50  8.7737E+002
 621.00  8.7444E+002
 621.50  8.6555E+002
 622.00  8.5962E+002
 622.50  8.5799E+002
 623.00  8.5755E+002
 623.50  8.6272E+002
 624.00  8.6243E+002
 624.50  8.5682E+002
 625.00  8.5413E+002
 625.50  8.4588E+002
 626.00  8.4458E+002
 626.50  8.5084E+002
 627.00  8.5456E+002
 627.50  8.5395E+002
 628.00  8.4812E+002
 628.50  8.4000E+002
 629.00  8.3697E+002
 629.50  8.3688E+002
 630.00  8.4268E+002
 630.50  8.4898E+002
 631.00  8.4967E+002
 631.50  8.4700E+002
 632.00  8.4856E+002
 632.50  8.4825E+002
 633.00  8.4535E+002
 633.50  8.4380E+002
 634.00  8.4375E+002
 634.50  8.4290E+002
 635.00  8.4013E+002
 635.50  8.3989E+002
 636.00  8.4579E+002
 636.50  8.4670E+002
 637.00  8.3867E+002
 637.50  8.3020E+002
 638.00  8.3059E+002
 638.50  8.3757E+002
 639.00  8.5478E+002
 639.50  8.7932E+002
 640.00  8.9394E+002
 640.50  8.9732E+002
 641.00  8.9778E+002
 641.50  8.9091E+002
 642.00  8.7723E+002
 642.50  8.6295E+002
 643.00  8.4535E+002
 643.50  8.3272E+002
 644.00  8.3148E+002
 644.50  8.3657E+002
 645.00  8.4208E+002
 645.50  8.4631E+002
 646.00  8.4874E+002
 646.50  8.5356E+002
 647.00  8.5903E+002
 647.50  8.6274E+002
 648.00  8.6062E+002
 648.50  8.4981E+002
 649.00  8.4207E+002
 649.50  8.4011E+002
 650.00  8.3768E+002
 650.50  8.4213E+002
 651.00  8.4168E+002
 651.50  8.3690E+002
 652.00  8.3242E+002
 652.50  8.2417E+002
 653.00  8.2839E+002
 653.50  8.3504E+002
 654.00  8.4357E+002
 654.50  8.5750E+002
 655.00  8.6194E+002
 655.50  8.5697E+002
 656.00  8.5012E+002
 656.50  8.3745E+002
 657.00  8.3022E+002
 657.50  8.2713E+002
 658.00  8.2434E+002
 658.50  8.2710E+002
 659.00  8.3011E+002
 659.50  8.2886E+002
 660.00  8.2860E+002
 660.50  8.2616E+002
 661.00  8.2547E+002
 661.50  8.2830E+002
 662.00  8.3255E+002
 662.50  8.4013E+002
 663.00  8.4019E+002
 663.50  8.4156E+002
 664.00  8.4525E+002
 664.50  8.4628E+002
 665.00  8.5039E+002
 665.50  8.5272E+002
 666.00  8.4923E+002
 666.50  8.4215E+002
 667.00  8.3708E+002
 667.50  8.2749E+002
 668.00  8.1680E+002
 668.50  8.2036E+002
 669.00  8.2629E+002
 669.50  8.3320E+002
 670.00  8.4804E+002
 670.50  8.5976E+002
 671.00  8.6155E+002
 671.50  8.4949E+002
 672.00  8.3352E+002
 672.50  8.2230E+002
 673.00  8.1851E+002
 673.50  8.2842E+002
 674.00  8.4032E+002
 674.50  8.4606E+002
 675.00  8.5174E+002
 675.50  8.5111E+002
 676.00  8.5386E+002
 676.50  8.5668E+002
 677.00  8.5036E+002
 677.50  8.4622E+002
 678.00  8.4351E+002
 678.50  8.4420E+002
 679.00  8.5388E+002
 679.50  8.6252E+002
 680.00  8.6569E+002
 680.50  8.6443E+002
 681.00  8.5530E+002
 681.50  8.4447E+002
 682.00  8.2701E+002
 682.50  8.0841E+002
 683.00  7.9757E+002
 683.50  7.8823E+002
 684.00  7.9013E+002
 684.50  8.0216E+002
 685.00  8.1905E+002
 685.50  8.3176E+002
 686.00  8.3892E+002
 686.50  8.4476E+002
 687.00  8.4659E+002
 687.50  8.4623E+002
 688.00  8.4796E+002
 688.50  8.4816E+002
 689.00  8.4295E+002
 689.50  8.3322E+002
 690.00  8.2522E+002
 690.50  8.2068E+002
 691.00  8.2410E+002
 691.50  8.2628E+002
 692.00  8.2663E+002
 692.50  8.3409E+002
 693.00  8.4872E+002
 693.50  8.6165E+002
 694.00  8.7631E+002
 694.50  8.8314E+002
 695.00  8.7606E+002
 695.50  8.7816E+002
 696.00  8.8677E+002
 696.50  8.8965E+002
 697.00  8.9200E+002
 697.50  8.8510E+002
 698.00  8.6281E+002
 698.50  8.3583E+002
 699.00  8.1607E+002
 699.50  8.0740E+002
 700.00  8.1413E+002
 700.50  8.3159E+002
 701.00  8.5061E+002
 701.50  8.6394E+002
 702.00  8.6763E+002
 702.50  8.6820E+002
 703.00  8.6399E+002
 703.50  8.5691E+002
 704.00  8.5005E+002
 704.50  8.4634E+002
 705.00  8.4868E+002
 705.50  8.4522E+002
 706.00  8.4004E+002
 706.50  8.3893E+002
 707.00  8.3981E+002
 707.50  8.4899E+002
 708.00  8.6407E+002
 708.50  8.7177E+002
 709.00  8.6860E+002
 709.50  8.6324E+002
 710.00  8.5445E+002
 710.50  8.4565E+002
 711.00  8.4261E+002
 711.50  8.4205E+002
 712.00  8.5115E+002
 712.50  8.6711E+002
 713.00  8.7723E+002
 713.50  8.7550E+002
 714.00  8.5974E+002
 714.50  8.3036E+002
 715.00  8.1113E+002
 715.50  8.0517E+002
 716.00  8.0937E+002
 716.50  8.1651E+002
 717.00  8.1570E+002
 717.50  8.2137E+002
 718.00  8.2727E+002
 718.50  8.3111E+002
 719.00  8.3702E+002
 719.50  8.4064E+002
 720.00  8.3887E+002
 720.50  8.2774E+002
 721.00  8.2314E+002
 721.50  8.2517E+002
 722.00  8.2944E+002
 722.50  8.4204E+002
 723.00  8.5562E+002
 723.50  8.5864E+002
 724.00  8.6487E+002
 724.50  8.7604E+002
 725.00  8.8603E+002
 725.50  8.9710E+002
 726.00  8.9495E+002
 726.50  8.8225E+002
 727.00  8.7120E+002
 727.50  8.5968E+002
 728.00  8.5648E+002
 728.50  8.5746E+002
 729.00  8.5675E+002
 729.50  8.5989E+002
 730.00  8.6235E+002
 730.50  8.6300E+002
 731.00  8.6461E+002
 731.50  8.6510E+002
 732.00  8.6285E+002
 732.50  8.6339E+002
 733.00  8.6100E+002
 733.50  8.5888E+002
 734.00  8.5692E+002
 734.50  8.4469E+002
 735.00  8.3541E+002
 735.50  8.2819E+002
 736.00  8.2163E+002
 736.50  8.1914E+002
 737.00  8.1683E+002
 737.50  8.1156E+002
 738.00  8.1164E+002
 738.50  8.1441E+002
 739.00  8.1103E+002
 739.50  8.1478E+002
 740.00  8.2012E+002
 740.50  8.1918E+002
 741.00  8.2747E+002
 741.50  8.4553E+002
 742.00  8.5073E+002
 742.50  8.5482E+002
 743.00  8.5854E+002
 743.50  8.5147E+002
 744.00  8.4677E+002
 744.50  8.5111E+002
 745.00  8.5509E+002
 745.50  8.6077E+002
 746.00  8.6440E+002
 746.50  8.6812E+002
 747.00  8.6917E+002
 747.50  8.7248E+002
 748.00  8.7510E+002
 748.50  8.6656E+002
 749.00  8.6611E+002
 749.50  8.6736E+002
 750.00  8.6634E+002
 750.50  8.7224E+002
 751.00  8.7624E+002
 751.50  8.7911E+002
 752.00  8.8015E+002
 752.50  8.7374E+002
 753.00  8.6269E+002
 753.50  8.4358E+002
 754.00  8.3447E+002
 754.50  8.3529E+002
 755.00  8.3542E+002
 755.50  8.4442E+002
 756.00  8.5213E+002
 756.50  8.5172E+002
 757.00  8.5987E+002
 757.50  8.6748E+002
 758.00  8.6659E+002
 758.50  8.6643E+002
 759.00  8.6055E+002
 759.50  8.4528E+002
 760.00  8.3537E+002
 760.50  8.2968E+002
 761.00  8.2638E+002
 761.50  8.3165E+002
 762.00  8.3840E+002
 762.50  8.3328E+002
 763.00  8.3088E+002
 763.50  8.3186E+002
 764.00  8.3259E+002
 764.50  8.4047E+002
 765.00  8.5110E+002
 765.50  8.5834E+002
 766.00  8.5356E+002
 766.50  8.4686E+002
 767.00  8.4061E+002
 767.50  8.3722E+002
 768.00  8.3897E+002
 768.50  8.4365E+002
 769.00  8.4035E+002
 769.50  8.3241E+002
 770.00  8.3171E+002
 770.50  8.3240E+002
 771.00  8.3780E+002
 771.50  8.4758E+002
 772.00  8.5224E+002
 772.50  8.6301E+002
 773.00  8.7850E+002
 773.50  8.9000E+002
 774.00  8.8971E+002
 774.50  8.8260E+002
 775.00  8.7593E+002
 775.50  8.6751E+002
 776.00  8.5629E+002
 776.50  8.5166E+002
 777.00  8.4363E+002
 777.50  8.3537E+002
 778.00  8.3839E+002
 778.50  8.4594E+002
 779.00  8.5574E+002
 779.50  8.6062E+002
 780.00  8.5974E+002
 780.50  8.4796E+002
 781.00  8.3935E+002
 781.50  8.4018E+002
 782.00  8.4618E+002
 782.50  8.5753E+002
 783.00  8.5446E+002
 783.50  8.3419E+002
 784.00  8.1688E+002
 784.50  8.1108E+002
 785.00  8.1913E+002
 785.50  8.3943E+002
 786.00  8.5805E+002
 786.50  8.5929E+002
 787.00  8.4743E+002
 787.50  8.3168E+002
 788.00  8.2062E+002
 788.50  8.2291E+002
 789.00  8.3596E+002
 789.50  8.5102E+002
 790.00  8.5850E+002
 790.50  8.5284E+002
 791.00  8.4447E+002
 791.50  8.4359E+002
 792.00  8.3411E+002
 792.50  8.2728E+002
 793.00  8.2345E+002
 793.50  8.1916E+002
 794.00  8.2615E+002
 794.50  8.3705E+002
 795.00  8.4920E+002
 795.50  8.6184E+002
 796.00  8.6991E+002
 796.50  8.7059E+002
 797.00  8.6459E+002
 797.50  8.5849E+002
 798.00  8.5720E+002
 798.50  8.5818E+002
 799.00  8.6358E+002
 799.50  8.7009E+002
 800.00  8.7295E+002
 800.50  8.6875E+002
 801.00  8.7304E+002
 801.50  8.7064E+002
 802.00  8.6112E+002
 802.50  8.6464E+002
 803.00  8.4830E+002
 803.50  8.3755E+002
 804.00  8.4524E+002
 804.50  8.5142E+002
 805.00  8.6632E+002
 805.50  8.7540E+002
 806.00  8.6956E+002
 806.50  8.5852E+002
 807.00  8.4746E+002
 807.50  8.3874E+002
 808.00  8.3671E+002
 808.50  8.3835E+002
 809.00  8.4037E+002
 809.50  8.3625E+002
 810.00  8.3250E+002
 810.50  8.3220E+002
 811.00  8.2584E+002
 811.50  8.3250E+002
 812.00  8.4350E+002
 812.50  8.4653E+002
 813.00  8.5900E+002
 813.50  8.6799E+002
 814.00  8.6349E+002
 814.50  8.5961E+002
 815.00  8.5288E+002
 815.50  8.4271E+002
 816.00  8.4470E+002
 816.50  8.4733E+002
 817.00  8.4589E+002
 817.50  8.4772E+002
 818.00  8.4684E+002
 818.50  8.5396E+002
 819.00  8.7134E+002
 819.50  8.8434E+002
 820.00  8.9508E+002
 820.50  8.9848E+002
 821.00  8.9615E+002
 821.50  8.9496E+002
 822.00  8.9195E+002
 822.50  8.9242E+002
 823.00  8.9462E+002
 823.50  8.9663E+002
 824.00  9.0044E+002
 824.50  9.0434E+002
 825.00  9.0027E+002
 825.50  8.8850E+002
 826.00  8.7509E+002
 826.50  8.6479E+002
 827.00  8.6366E+002
 827.50  8.6736E+002
 828.00  8.6706E+002
 828.50  8.5692E+002
 829.00  8.4397E+002
 829.50  8.3231E+002
 830.00  8.3174E+002
 830.50  8.4866E+002
 831.00  8.5849E+002
 831.50  8.6280E+002
 832.00  8.5906E+002
 832.50  8.5002E+002
 833.00  8.5134E+002
 833.50  8.5098E+002
 834.00  8.5288E+002
 834.50  8.5042E+002
 835.00  8.4434E+002
 835.50  8.4364E+002
 836.00  8.4090E+002
 836.50  8.4022E+002
 837.00  8.4773E+002
 837.50  8.5632E+002
 838.00  8.6769E+002
 838.50  8.7491E+002
 839.00  8.6926E+002
 839.50  8.6571E+002
 840.00  8.6853E+002
 840.50  8.7601E+002
 841.00  8.8767E+002
 841.50  8.9373E+002
 842.00  8.8506E+002
 842.50  8.7648E+002
 843.00  8.7563E+002
 843.50  8.8343E+002
 844.00  8.9382E+002
 844.50  8.9275E+002
 845.00  8.8723E+002
 845.50  8.7850E+002
 846.00  8.7986E+002
 846.50  8.8368E+002
 847.00  8.8240E+002
 847.50  8.7950E+002
 848.00  8.7472E+002
 848.50  8.7716E+002
 849.00  8.8402E+002
 849.50  8.8519E+002
 850.00  8.7439E+002
 850.50  8.6240E+002
 851.00  8.5472E+002
 851.50  8.4886E+002
 852.00  8.4907E+002
 852.50  8.5694E+002
 853.00  8.6014E+002
 853.50  8.6345E+002
 854.00  8.6141E+002
 854.50  8.4894E+002
 855.00  8.3704E+002
 855.50  8.3806E+002
 856.00  8.4141E+002
 856.50  8.4581E+002
 857.00  8.4794E+002
 857.50  8.4904E+002
 858.00  8.4814E+002
 858.50  8.4683E+002
 859.00  8.5668E+002
 859.50  8.6177E+002
 860.00  8.6866E+002
 860.50  8.7305E+002
 861.00  8.6609E+002
 861.50  8.6499E+002
 862.00  8.7194E+002
 862.50  8.7155E+002
 863.00  8.6404E+002
 863.50  8.5010E+002
 864.00  8.4839E+002
 864.50  8.6074E+002
 865.00  8.7450E+002
 865.50  8.8710E+002
 866.00  8.8590E+002
 866.50  8.8545E+002
 867.00  8.9294E+002
 867.50  8.9945E+002
 868.00  9.1012E+002
 868.50  9.1846E+002
 869.00  9.2175E+002
 869.50  9.2382E+002
 870.00  9.1434E+002
 870.50  9.0203E+002
 871.00  8.9628E+002
 871.50  8.9572E+002
 872.00  9.0381E+002
 872.50  9.1396E+002
 873.00  9.2220E+002
 873.50  9.2201E+002
 874.00  9.1331E+002
 874.50  9.1533E+002
 875.00  9.1899E+002
 875.50  9.2980E+002
 876.00  9.3348E+002
 876.50  9.1961E+002
 877.00  9.0255E+002
 877.50  8.7599E+002
 878.00  8.6478E+002
 878.50  8.6720E+002
 879.00  8.7028E+002
 879.50  8.8306E+002
 880.00  8.9148E+002
 880.50  8.9396E+002
 881.00  9.0156E+002
 881.50  9.0738E+002
 882.00  9.1592E+002
 882.50  9.1814E+002
 883.00  9.1846E+002
 883.50  9.1683E+002
 884.00  9.0568E+002
 884.50  9.0412E+002
 885.00  9.0411E+002
 885.50  9.0982E+002
 886.00  9.1198E+002
 886.50  9.1633E+002
 887.00  9.1372E+002
 887.50  9.0622E+002
 888.00  9.0660E+002
 888.50  9.0034E+002
 889.00  9.0320E+002
 889.50  9.0429E+002
 890.00  9.0755E+002
 890.50  9.3034E+002
 891.00  9.5837E+002
 891.50  9.8776E+002
 892.00  1.0181E+003
 892.50  1.0522E+003
 893.00  1.1351E+003
 893.50  1.3074E+003
 894.00  1.6341E+003
 894.50  2.1097E+003
 895.00  2.7171E+003
 895.50  3.4209E+003
 896.00  4.1735E+003
 896.50  4.9383E+003
 897.00  5.6825E+003
 897.50  6.3571E+003
 898.00  6.9281E+003
 898.50  7.4063E+003
 899.00  7.7953E+003
 899.50  8.1130E+003
 900.00  8.3626E+003
 900.50  8.5032E+003
 901.00  8.5848E+003
 901.50  8.6305E+003
 902.00  8.6405E+003
 902.50  8.5879E+003
 903.00  8.3701E+003
 903.50  7.9261E+003
 904.00  7.2651E+003
 904.50  6.4202E+003
 905.00  5.4952E+003
 905.50  4.5328E+003
 906.00  3.5787E+003
 906.50  2.7167E+003
 907.00  1.9990E+003
 907.50  1.4742E+003
 908.00  1.1860E+003
 908.50  1.0568E+003
 909.00  1.0019E+003
 909.50  9.7969E+002
 910.00  9.7483E+002
 910.50  9.7236E+002
 911.00  9.8096E+002
 911.50  9.8264E+002
 912.00  9.7962E+002
 912.50  9.7127E+002
 913.00  9.6087E+002
 913.50  9.5358E+002
 914.00  9.4297E+002
 914.50  9.3505E+002
 915.00  9.3351E+002
 915.50  9.4484E+002
 916.00  9.6024E+002
 916.50  9.7014E+002
 917.00  9.7478E+002
 917.50  9.7043E+002
 918.00  9.5812E+002
 918.50  9.5965E+002
 919.00  9.6232E+002
 919.50  9.5649E+002
 920.00  9.5483E+002
 920.50  9.4607E+002
 921.00  9.3502E+002
 921.50  9.2875E+002
 922.00  9.1868E+002
 922.50  9.0626E+002
 923.00  8.9803E+002
 923.50  8.8708E+002
 924.00  8.7663E+002
 924.50  8.6433E+002
 925.00  8.6188E+002
 925.50  8.5820E+002
 926.00  8.5862E+002
 926.50  8.6076E+002
 927.00  8.6561E+002
 927.50  8.7547E+002
 928.00  8.8804E+002
 928.50  8.8699E+002
 929.00  8.7702E+002
 929.50  8.7867E+002
 930.00  8.7631E+002
 930.50  8.8512E+002
 931.00  8.8706E+002
 931.50  8.7369E+002
 932.00  8.6972E+002
 932.50  8.7507E+002
 933.00  8.8879E+002
 933.50  9.0240E+002
 934.00  9.0817E+002
 934.50  9.0073E+002
 935.00  8.8857E+002
 935.50  8.7814E+002
 936.00  8.7093E+002
 936.50  8.6634E+002
 937.00  8.7265E+002
 937.50  8.9067E+002
 938.00  8.9998E+002
 938.50  9.1005E+002
 939.00  9.1219E+002
 939.50  9.1060E+002
 940.00  9.1276E+002
 940.50  9.0580E+002
 941.00  8.9675E+002
 941.50  8.7859E+002
 942.00  8.6278E+002
 942.50  8.5448E+002
 943.00  8.4781E+002
 943.50  8.4126E+002
 944.00  8.3595E+002
 944.50  8.2844E+002
 945.00  8.2831E+002
 945.50  8.4307E+002
 946.00  8.5406E+002
 946.50  8.5484E+002
 947.00  8.5263E+002
 947.50  8.4594E+002
 948.00  8.4578E+002
 948.50  8.4686E+002
 949.00  8.5109E+002
 949.50  8.6799E+002
 950.00  8.7927E+002
 950.50  8.8200E+002
 951.00  8.7113E+002
 951.50  8.4854E+002
 952.00  8.4298E+002
 952.50  8.5056E+002
 953.00  8.6686E+002
 953.50  8.8534E+002
 954.00  8.8140E+002
 954.50  8.7114E+002
 955.00  8.5536E+002
 955.50  8.4492E+002
 956.00  8.4957E+002
 956.50  8.5608E+002
 957.00  8.5842E+002
 957.50  8.6008E+002
 958.00  8.4949E+002
 958.50  8.3621E+002
 959.00  8.2112E+002
 959.50  8.1189E+002
 960.00  8.2275E+002
 960.50  8.4191E+002
 961.00  8.6513E+002
 961.50  8.8351E+002
 962.00  8.9105E+002
 962.50  8.9577E+002
 963.00  8.9110E+002
 963.50  8.7849E+002
 964.00  8.7301E+002
 964.50  8.6210E+002
 965.00  8.5556E+002
 965.50  8.4766E+002
 966.00  8.3525E+002
 966.50  8.2499E+002
 967.00  8.2635E+002
 967.50  8.3774E+002
 968.00  8.5483E+002
 968.50  8.6399E+002
 969.00  8.6075E+002
 969.50  8.4569E+002
 970.00  8.3423E+002
 970.50  8.2353E+002
 971.00  8.2453E+002
 971.50  8.3646E+002
 972.00  8.4406E+002
 972.50  8.4756E+002
 973.00  8.4383E+002
 973.50  8.3370E+002
 974.00  8.4197E+002
 974.50  8.5346E+002
 975.00  8.5880E+002
 975.50  8.6526E+002
 976.00  8.6740E+002
 976.50  8.7489E+002
 977.00  8.9060E+002
 977.50  8.9666E+002
 978.00  8.9350E+002
 978.50  8.8384E+002
 979.00  8.7142E+002
 979.50  8.7502E+002
 980.00  8.8018E+002
 980.50  8.8486E+002
 981.00  8.7542E+002
 981.50  8.6644E+002
 982.00  8.6827E+002
 982.50  8.7197E+002
 983.00  8.7300E+002
 983.50  8.7037E+002
 984.00  8.6504E+002
 984.50  8.6467E+002
 985.00  8.7064E+002
 985.50  8.6392E+002
 986.00  8.4775E+002
 986.50  8.3874E+002
 987.00  8.3078E+002
 987.50  8.3832E+002
 988.00  8.4725E+002
 988.50  8.4089E+002
 989.00  8.3279E+002
 989.50  8.2734E+002
 990.00  8.3068E+002
 990.50  8.3979E+002
 991.00  8.5007E+002
 991.50  8.5247E+002
 992.00  8.5703E+002
 992.50  8.6941E+002
 993.00  8.6373E+002
 993.50  8.6496E+002
 994.00  8.5877E+002
 994.50  8.6039E+002
 995.00  8.7043E+002
 995.50  8.7603E+002
 996.00  8.8040E+002
 996.50  8.7838E+002
 997.00  8.7352E+002
 997.50  8.6775E+002
 998.00  8.7030E+002
 998.50  8.6486E+002
 999.00  8.6064E+002
 999.50  8.5990E+002
1000.00  8.6277E+002
1000.50  8.7375E+002
1001.00  8.6709E+002
1001.50  8.4739E+002
1002.00  8.3690E+002
1002.50  8.3289E+002
1003.00  8.4487E+002
1003.50  8.5500E+002
1004.00  8.5928E+002
1004.50  8.5635E+002
1005.00  8.6022E+002
1005.50  8.5758E+002
1006.00  8.5232E+002
1006.50  8.4462E+002
1007.00  8.3045E+002
1007.50  8.2450E+002
1008.00  8.2453E+002
1008.50  8.2589E+002
1009.00  8.3232E+002
1009.50  8.4182E+002
1010.00  8.3931E+002
1010.50  8.3528E+002
1011.00  8.2737E+002
1011.50  8.2025E+002
1012.00  8.3471E+002
1012.50  8.3539E+002
1013.00  8.3030E+002
1013.50  8.2214E+002
1014.00  8.2334E+002
1014.50  8.4748E+002
1015.00  8.7131E+002
1015.50  8.7414E+002
1016.00  8.5081E+002
1016.50  8.3772E+002
1017.00  8.3939E+002
1017.50  8.6041E+002
1018.00  8.7175E+002
1018.50  8.6700E+002
1019.00  8.6357E+002
1019.50  8.6567E+002
1020.00  8.6660E+002
1020.50  8.6506E+002
1021.00  8.6150E+002
1021.50  8.7154E+002
1022.00  8.8863E+002
1022.50  8.9168E+002
1023.00  8.8085E+002
1023.50  8.6348E+002
1024.00  8.6427E+002
1024.50  8.6935E+002
1025.00  8.6532E+002
1025.50  8.4794E+002
1026.00  8.2107E+002
1026.50  8.0652E+002
1027.00  8.0734E+002
1027.50  8.1221E+002
1028.00  8.2914E+002
1028.50  8.4046E+002
1029.00  8.5014E+002
1029.50  8.5436E+002
1030.00  8.5007E+002
1030.50  8.4433E+002
1031.00  8.4233E+002
1031.50  8.3941E+002
1032.00  8.3301E+002
1032.50  8.2559E+002
1033.00  8.2373E+002
1033.50  8.2793E+002
1034.00  8.3431E+002
1034.50  8.4138E+002
1035.00  8.4731E+002
1035.50  8.6300E+002
1036.00  8.7261E+002
1036.50  8.7598E+002
1037.00  8.7767E+002
1037.50  8.7173E+002
1038.00  8.7161E+002
1038.50  8.7600E+002
1039.00  8.8288E+002
1039.50  8.9319E+002
1040.00  8.9622E+002
1040.50  8.8790E+002
1041.00  8.7971E+002
1041.50  8.7028E+002
1042.00  8.7326E+002
1042.50  8.7873E+002
1043.00  8.8459E+002
1043.50  8.8259E+002
1044.00  8.6905E+002
1044.50  8.6123E+002
1045.00  8.4054E+002
1045.50  8.3032E+002
1046.00  8.2876E+002
1046.50  8.2898E+002
1047.00  8.3966E+002
1047.50  8.4459E+002
1048.00  8.3468E+002
1048.50  8.3846E+002
1049.00  8.2622E+002
1049.50  8.2572E+002
1050.00  8.1379E+002
1050.50  8.0510E+002
1051.00  8.0244E+002
1051.50  8.1095E+002
1052.00  8.2726E+002
1052.50  8.3557E+002
1053.00  8.3070E+002
1053.50  8.2623E+002
1054.00  8.2678E+002
1054.50  8.4424E+002
1055.00  8.5050E+002
1055.50  8.5258E+002
1056.00  8.4330E+002
1056.50  8.3546E+002
1057.00  8.3142E+002
1057.50  8.3378E+002
1058.00  8.3712E+002
1058.50  8.5121E+002
1059.00  8.6440E+002
1059.50  8.8257E+002
1060.00  8.8626E+002
1060.50  8.7907E+002
1061.00  8.6069E+002
1061.50  8.4474E+002
1062.00  8.3271E+002
1062.50  8.3526E+002
1063.00  8.3409E+002
1063.50  8.4597E+002
1064.00  8.5056E+002
1064.50  8.5174E+002
1065.00  8.5879E+002
1065.50  8.5702E+002
1066.00  8.5431E+002
1066.50  8.4694E+002
1067.00  8.2874E+002
1067.50  8.1139E+002
1068.00  8.0487E+002
1068.50  7.9188E+002
1069.00  8.0035E+002
1069.50  8.1122E+002
1070.00  8.2939E+002
1070.50  8.3954E+002
1071.00  8.3441E+002
1071.50  8.2882E+002
1072.00  8.3334E+002
1072.50  6.9645E+002
